#   1 NUMBER                 Running object number                                     
#   2 EXT_NUMBER             FITS extension number                                     
#   3 FLUX_BEST              Best of FLUX_AUTO and FLUX_ISOCOR                          [count]
#   4 FLUXERR_BEST           RMS error for BEST flux                                    [count]
#   5 MAG_BEST               Best of MAG_AUTO and MAG_ISOCOR                            [mag]
#   6 MAGERR_BEST            RMS error for MAG_BEST                                     [mag]
#   7 KRON_RADIUS            Kron apertures in units of A or B                         
#   8 X_IMAGE                Object position along x                                    [pixel]
#   9 Y_IMAGE                Object position along y                                    [pixel]
#  10 A_IMAGE                Profile RMS along major axis                               [pixel]
#  11 B_IMAGE                Profile RMS along minor axis                               [pixel]
#  12 THETA_IMAGE            Position angle (CCW/x)                                     [deg]
         1   1  7.57999e-07 1.427756e-09  15.3008   0.0020  3.75    403.7407    234.8872     9.835     8.223 -42.71
         2   1 8.910662e-06 9.917487e-10  12.6252   0.0001  3.50   1107.3784    181.9937     6.898     6.484 -37.55
         3   1 6.360034e-07 1.033741e-09  15.4914   0.0018  3.50     63.6324     53.4147     7.431     6.533   3.31
         4   1 6.018183e-07 3.631324e-10  15.5513   0.0007  3.50   1078.4597     59.8050     2.549     2.413 -84.12
         5   1 8.067896e-08 4.820102e-10  17.7331   0.0065  3.50    985.0616     16.5149     4.756     2.263 -88.28
         6   1 1.133944e-08 2.816867e-10  19.8635   0.0270  3.98    367.1803     24.7848     1.725     1.610  -6.70
         7   1 3.909566e-09 2.438665e-10  21.0197   0.0677  4.19    383.2162     23.8062     1.543     1.515  49.49
         8   1 5.398594e-09 2.303466e-10  20.6693   0.0463  4.05    384.4464     17.2890     1.677     1.488 -58.29
         9   1 5.348286e-08 3.096803e-10  18.1795   0.0063  3.50     91.2339     18.0854     2.095     2.066 -40.67
        10   1 1.343365e-07 3.096803e-10  17.1795   0.0025  3.50   1445.7297     14.6244     2.129     2.042 -65.97
        11   1 1.593623e-09 1.803833e-10  21.9940   0.1229  4.00   1562.9839     14.9911     1.166     0.996  -2.19
        12   1 3.271942e-09  3.56789e-10  21.2130   0.1184  5.99    841.1514     14.2920     1.672     1.206 -56.85
        13   1 2.757664e-09 2.584354e-10  21.3986   0.1018  5.07   1183.7175     10.2585     1.284     1.136  81.41
        14   1 2.148358e-09 2.896794e-10  21.6697   0.1464  5.09   1469.4164      6.6537     1.490     1.222 -36.50
        15   1 2.340952e-09 3.096803e-10  21.5765   0.1437  6.37    185.0716      5.5688     1.297     1.153  35.48
        16   1 5.725542e-09 2.916434e-10  20.6055   0.0553  4.33    145.2199      4.2196     1.874     1.723  57.33
        17   1 7.047293e-10 1.722902e-10  22.8799   0.2655  6.36    845.0474      3.4965     0.803     0.500  -0.21
        18   1 1.725325e-09 2.328739e-10  21.9078   0.1466  5.51    304.4612      2.5998     1.350     1.008  -3.14
        19   1 4.375084e-10 1.041444e-10  23.3975   0.2585  6.37    482.3015      1.6383     0.575     0.334  47.66
        20   1 1.323715e-09 1.453315e-10  22.1955   0.1192  3.52   1215.2181     18.0244     1.157     0.819 -40.21
        21   1 6.938449e-09 2.974574e-10  20.3968   0.0466  3.75   1109.9700     33.7783     2.303     1.523  66.77
        22   1 8.082352e-10 1.453315e-10  22.7312   0.1953  4.93    194.9828     16.0518     0.910     0.523 -45.42
        23   1 2.300173e-09 2.734605e-10  21.5956   0.1291  5.46    698.8230     23.9004     1.411     0.983  33.42
        24   1 2.637115e-09 3.395742e-10  21.4472   0.1398  7.01   1453.8048     24.8606     1.205     1.084  -4.27
        25   1 4.896338e-09 3.115182e-10  20.7753   0.0691  4.62    326.9310     33.5556     1.627     1.578  48.67
        26   1 4.737311e-10 1.241483e-10  23.3112   0.2846  6.33   1354.3385     20.3104     0.569     0.337 -43.65
        27   1 5.772551e-07  3.49515e-10  15.5966   0.0007  3.50    537.6116     80.1615     2.387     2.303 -57.30
        28   1 4.399146e-09 2.517216e-10  20.8916   0.0621  4.02   1170.4935     38.7703     1.589     1.360  60.82
        29   1 3.373473e-09  2.37726e-10  21.1798   0.0765  4.22   1521.1024     37.7014     1.369     1.293  15.54
        30   1 4.042574e-09 2.867083e-10  20.9834   0.0770  4.34    440.6299     44.2238     1.794     1.357 -60.98
        31   1 3.730211e-09 2.136997e-10  21.0707   0.0622  3.61    915.5620     42.1094     1.527     1.245 -56.87
        32   1 1.202421e-09 2.279186e-10  22.2999   0.2059  4.98   1226.2634     38.9256     1.361     0.871 -44.51
        33   1  1.18999e-09 2.539792e-10  22.3111   0.2318  7.07     16.8046     34.8878     0.982     0.741  28.28
        34   1  2.95439e-09 2.215686e-10  21.3238   0.0814  3.50    265.4030     50.4009     1.530     1.504 -35.97
        35   1  7.52958e-10 1.941024e-10  22.8081   0.2800  7.00   1001.1779     41.8590     0.760     0.564 -45.03
        36   1 2.752038e-09  2.41301e-10  21.4009   0.0952  4.17   1435.2677     50.0279     1.724     1.086  29.20
        37   1 8.802736e-10 1.386125e-10  22.6385   0.1710  6.70   1430.5229     47.5112     0.979     0.695 -28.03
        38   1 1.631493e-09 2.459869e-10  21.9685   0.1637  6.72    666.0822     47.6922     1.005     0.745 -73.48
        39   1 5.473355e-10 1.351556e-10  23.1544   0.2682  6.73    228.4708     43.5645     0.506     0.489 -39.21
        40   1   9.4351e-10 2.163545e-10  22.5631   0.2490  6.52    474.2519     46.6383     0.944     0.652 -18.93
        41   1 2.085164e-09 3.069029e-10  21.7021   0.1598  8.83    121.8709     51.1275     0.962     0.690 -13.42
        42   1 5.181587e-10 1.433541e-10  23.2138   0.3005  7.59   1233.6885     48.6586     0.571     0.336 -46.40
        43   1 2.188459e-08 2.703112e-10  19.1497   0.0134  3.50    128.0148     75.1996     1.874     1.777 -87.48
        44   1 2.925363e-09 2.123599e-10  21.3346   0.0788  3.50   1147.9442     65.6294     1.595     1.284  40.48
        45   1 6.726681e-10 1.068499e-10  22.9305   0.1725  3.50   1241.8037     58.3162     0.859     0.624  28.57
        46   1  8.49879e-07  3.56789e-10  15.1766   0.0005  3.50    789.1586    121.8204     2.436     2.345 -57.58
        47   1 8.252541e-10 1.722902e-10  22.7085   0.2267  8.53    471.4803     59.5240     0.500     0.499 -40.06
        48   1 4.460779e-09 4.431372e-10  20.8765   0.1079  7.38     20.7843     69.5752     1.894     1.058   9.38
        49   1 8.450915e-10 1.835207e-10  22.6827   0.2358  6.21   1516.4147     66.2949     1.024     0.473 -81.29
        50   1 1.185576e-09 2.055298e-10  22.3152   0.1883  5.45   1415.5289     67.4794     0.908     0.863   3.72
        51   1 5.966834e-09  2.56217e-10  20.5606   0.0466  3.50    421.6674     82.2480     1.779     1.662 -48.40
        52   1 1.593041e-09 1.655311e-10  21.9944   0.1128  3.50   1322.0936     71.8430     1.150     1.117 -11.56
        53   1 1.338629e-08 4.152049e-10  19.6833   0.0337  4.10    377.2218     90.7409     2.484     2.304   8.57
        54   1  3.27848e-08 3.160662e-10  18.7108   0.0105  3.81     56.1436     96.5718     2.013     1.926 -20.48
        55   1 3.645212e-06 4.444235e-10  13.5957   0.0001  3.50    318.1092    193.5547     3.314     2.737 -66.48
        56   1 3.163821e-09  3.77015e-10  21.2495   0.1294  6.02    932.3263     84.3578     1.705     1.274 -13.26
        57   1  1.60325e-09  1.78794e-10  21.9875   0.1211  4.30   1033.3682     79.5793     1.059     0.954  41.37
        58   1 5.356142e-10 1.511085e-10  23.1779   0.3064  7.94    733.7177     74.6558     0.559     0.341 -48.40
        59   1 1.171732e-09 2.459869e-10  22.3279   0.2280  5.52   1560.0690     85.2293     1.821     0.615  49.92
        60   1 3.586242e-09 3.445805e-10  21.1134   0.1043  6.10    758.9611     88.4749     1.506     1.171  65.29
        61   1 1.661465e-09 1.637977e-10  21.9488   0.1071  3.50   1359.5748     87.8671     1.186     1.029  60.62
        62   1  2.14052e-09  2.83706e-10  21.6737   0.1439  5.87    864.0453     87.8888     1.236     1.064 -46.39
        63   1 2.485898e-09  2.85711e-10  21.5113   0.1248  5.67   1045.4529     91.7379     1.448     0.992  58.28
        64   1 3.241271e-09 2.291674e-10  21.2232   0.0768  4.46    495.8045     91.4392     1.306     1.136 -51.05
        65   1 3.585818e-09 2.867083e-10  21.1135   0.0868  4.74   1076.1680     95.2763     1.658     1.219  60.92
        66   1 8.239869e-09   3.0316e-10  20.2102   0.0400  3.87    453.0172     98.0818     2.378     1.457 -16.09
        67   1 7.476951e-10 1.472824e-10  22.8157   0.2139  7.73    844.6881     84.6855     0.560     0.342 -45.14
        68   1 1.537226e-09  2.76574e-10  22.0332   0.1954  8.04    811.9200     89.2206     1.039     0.635 -30.27
        69   1 1.544511e-09 2.573285e-10  22.0280   0.1809  6.07    389.4156     94.8921     1.118     0.875  18.99
        70   1 4.507417e-10 1.351556e-10  23.3652   0.3256  6.07    872.4779     93.9898     0.782     0.319  57.39
        71   1 1.442931e-09 2.734605e-10  22.1019   0.2058  6.89    519.5129    102.8238     1.285     0.690  -7.11
        72   1 2.732286e-09 2.482967e-10  21.4087   0.0987  4.25    415.6241    115.1609     1.494     1.287  34.97
        73   1 1.512032e-09 2.539792e-10  22.0511   0.1824  6.48   1422.3306    107.5161     1.063     0.795 -38.85
        74   1 1.371576e-09 2.013206e-10  22.1569   0.1594  5.87    862.9695    108.1666     0.877     0.749  87.25
        75   1 3.165639e-09 3.429198e-10  21.2488   0.1176  5.74    270.4940    114.2812     1.603     1.247  45.21
        76   1  2.43862e-09 2.867083e-10  21.5321   0.1277  7.13   1100.0114    106.9729     1.231     0.724 -14.63
        77   1 1.270247e-09 1.926263e-10  22.2403   0.1647  5.15   1514.8478    110.7918     0.899     0.848  -6.27
        78   1 7.524751e-10 1.881286e-10  22.8088   0.2715  7.54    181.4032    107.7939     0.764     0.445 -70.60
        79   1 3.424241e-09 3.124331e-10  21.1636   0.0991  4.91     66.6609    117.4971     1.894     1.195  18.32
        80   1 4.845621e-07 3.412511e-10  15.7866   0.0008  3.50   1468.3042    162.3189     2.357     2.270 -55.72
        81   1 2.063631e-09 1.803833e-10  21.7134   0.0949  3.50    990.8811    117.0442     1.208     1.205  29.33
        82   1 2.000222e-09 2.365223e-10  21.7473   0.1284  5.43    154.0959    117.8006     1.177     0.922  42.82
        83   1 4.862704e-10 1.241483e-10  23.2828   0.2773  6.99   1580.3340    114.6874     0.568     0.338  43.96
        84   1 4.475161e-10 1.241483e-10  23.3730   0.3013  6.51    300.6866    117.3312     0.568     0.338  45.87
        85   1 2.680932e-09 2.291674e-10  21.4293   0.0928  4.01    493.9881    126.3655     1.691     1.081 -10.06
        86   1  8.29656e-10 1.548402e-10  22.7028   0.2027  7.99    913.3226    119.3294     0.571     0.337 -45.32
        87   1 3.508202e-09 2.328739e-10  21.1373   0.0721  4.23    418.2537    131.3993     1.330     1.281 -47.78
        88   1 2.022068e-09  2.85711e-10  21.7355   0.1534  6.32    885.6592    129.0459     1.207     0.939  63.44
        89   1 7.299072e-10 1.941024e-10  22.8418   0.2888  7.78    264.4059    123.8008     0.781     0.442 -70.64
        90   1 1.379208e-09 2.215686e-10  22.1509   0.1745  6.34   1478.7469    127.9858     0.917     0.756   1.36
        91   1 3.767429e-09 3.762572e-10  21.0599   0.1085  6.00    886.4458    142.8458     1.852     1.188  36.08
        92   1 1.133598e-07 3.160662e-10  17.3639   0.0030  3.50    877.2668    170.3013     2.143     2.124  87.18
        93   1 9.936555e-10 1.881286e-10  22.5069   0.2056  5.78     99.6731    136.0063     1.026     0.604 -22.85
        94   1 3.994248e-09 2.796529e-10  20.9964   0.0760  4.50    354.0078    146.6667     1.635     1.351 -38.23
        95   1 2.908975e-09 2.436552e-10  21.3407   0.0910  4.45   1280.3628    151.2665     1.315     1.255 -65.69
        96   1 1.128295e-08 3.232098e-10  19.8689   0.0311  4.21   1445.8767    165.0271     1.842     1.784  25.57
        97   1 1.957796e-09 1.866053e-10  21.7706   0.1035  3.50     82.5473    155.6845     1.391     1.085  82.54
        98   1 1.881627e-09 2.617276e-10  21.8137   0.1511  6.25   1579.9779    155.9940     1.203     0.849  31.06
        99   1 7.557762e-09 2.215686e-10  20.3040   0.0318  3.50    104.4901    166.7870     1.557     1.477 -35.41
       100   1 2.709873e-09 3.078315e-10  21.4176   0.1234  5.19    576.4426    165.9238     1.575     1.244 -78.33
       101   1 9.365507e-09 5.422038e-10  20.0712   0.0629  7.82   1056.0046    166.8516     1.789     1.483 -31.16
       102   1 1.396321e-09 2.424809e-10  22.1375   0.1886  7.30    492.8347    160.2819     0.917     0.674  69.04
       103   1 1.118208e-09 2.041364e-10  22.3787   0.1983  7.37    823.5533    155.2822     0.947     0.450  -1.06
       104   1 8.909541e-10 1.722902e-10  22.6254   0.2100  7.86   1008.4918    156.4891     0.500     0.500  41.80
       105   1  2.15295e-08 5.484844e-10  19.1674   0.0277  5.52    349.8358    208.8390     2.780     1.971  42.80
       106   1  3.91749e-09 2.505851e-10  21.0175   0.0695  4.32   1368.8402    169.4504     1.416     1.332  61.62
       107   1 1.357566e-09 1.866053e-10  22.1681   0.1493  4.44   1198.0367    165.3954     1.114     0.876  11.32
       108   1 2.483022e-09 2.241302e-10  21.5125   0.0980  4.34    651.3315    169.1119     1.339     1.108  24.39
       109   1 5.225367e-09 2.724148e-10  20.7047   0.0566  3.57    575.1453    180.1208     2.029     1.604  21.25
       110   1 2.890627e-09 3.670413e-10  21.3475   0.1379  6.63   1201.0006    176.2925     1.493     1.144 -64.52
       111   1 1.239301e-08 2.471906e-10  19.7671   0.0217  3.50   1350.5189    192.5615     1.756     1.701  -1.96
       112   1 5.850446e-09 2.660387e-10  20.5820   0.0494  4.77   1354.9537    186.7878     1.776     1.755 -79.18
       113   1 6.137971e-10 1.866053e-10  23.0299   0.3302  7.35     32.5618    173.7572     0.772     0.444  69.51
       114   1 1.460723e-06 3.800312e-10  14.5886   0.0003  3.50    997.4600    259.7694     2.668     2.466 -45.96
       115   1 6.617425e-08 5.689191e-10  17.9483   0.0093  3.69    827.6368    210.7420     5.197     2.558  -7.81
       116   1 5.113414e-09 4.082728e-10  20.7282   0.0867  7.32   1027.8684    190.3328     1.482     1.165  89.51
       117   1  4.29274e-06 4.267311e-10  13.4182   0.0001  3.50    439.4103    312.3846     3.020     2.781 -47.75
       118   1 5.997134e-08  6.26235e-10  18.0551   0.0113  3.67    562.2575    230.0400     4.205     3.851 -17.33
       119   1 2.275836e-08 2.638997e-10  19.1071   0.0126  3.50    549.0725    206.7230     1.797     1.754 -73.78
       120   1 1.667014e-09 2.628159e-10  21.9452   0.1712  7.74    837.3340    186.9624     1.010     0.639  35.77
       121   1  1.09436e-06 3.762572e-10  14.9021   0.0004  3.50     67.5528    265.9337     2.595     2.489 -48.05
       122   1 5.691668e-09 4.280667e-10  20.6119   0.0817  6.09    268.1123    195.1947     2.239     1.231   8.93
       123   1 5.586795e-09 3.050372e-10  20.6321   0.0593  4.81    250.9257    203.5539     1.510     1.491  69.21
       124   1 2.186796e-09 2.796529e-10  21.6505   0.1389  6.27    449.3372    195.9594     1.148     0.961 -43.33
       125   1 2.997472e-09 2.993704e-10  21.3081   0.1085  8.04   1159.9073    194.4322     1.020     0.750 -74.11
       126   1 2.299054e-08  2.68191e-10  19.0961   0.0127  3.50   1306.1686    212.1566     1.817     1.781  86.74
       127   1  7.02395e-09 2.528529e-10  20.3835   0.0391  3.56    684.8187    210.9883     1.861     1.524 -76.81
       128   1 1.805297e-08 5.939546e-10  19.3586   0.0357  5.73    345.9441    222.4491     2.559     2.333 -27.82
       129   1 2.317557e-09 2.877021e-10  21.5874   0.1348  6.07    936.8448    205.8528     1.366     0.922 -44.05
       130   1 2.220931e-09 1.755723e-10  21.6337   0.0859  3.50   1225.7294    209.2779     1.313     1.081  53.58
       131   1 1.030111e-09 1.896397e-10  22.4678   0.1999  5.15    183.5781    206.1576     1.062     0.724  40.46
       132   1 2.641727e-08 2.638997e-10  18.9453   0.0108  3.50   1226.0979    223.8853     1.806     1.759  28.61
       133   1 4.824736e-09 3.462331e-10  20.7913   0.0779  4.92    741.2263    217.7642     1.989     1.383 -55.68
       134   1 1.030469e-09 1.725332e-10  22.4674   0.1818  6.64    942.2931    206.1062     1.066     0.682  -9.68
       135   1 2.276555e-09 2.241302e-10  21.6068   0.1069  3.65    882.5800    217.7326     2.209     0.944 -44.45
       136   1 9.037617e-09 2.328739e-10  20.1099   0.0280  3.51    774.8552    222.5676     1.683     1.525 -21.39
       137   1 1.970981e-08 3.882048e-10  19.2633   0.0214  3.86    112.8095    243.9711     2.740     2.057 -83.70
       138   1 7.537486e-09 5.593057e-10  20.3069   0.0806  7.55    324.1831    227.2153     2.062     1.486 -57.69
       139   1 5.291864e-08 4.482603e-10  18.1910   0.0092  3.62    613.0598    255.4228     3.167     2.713 -41.65
       140   1 1.107323e-09 1.896397e-10  22.3893   0.1860  5.73    793.2128    215.4441     1.251     0.487   4.98
       141   1 1.013787e-09 2.202766e-10  22.4851   0.2360  7.10    685.0237    220.2377     1.195     0.442 -56.51
       142   1 3.360939e-09 2.412947e-10  21.1838   0.0780  6.15    548.2057    230.0555     1.630     1.332 -50.95
       143   1 1.098377e-09 2.110116e-10  22.3981   0.2086  6.68    492.1340    218.1372     0.821     0.688 -51.00
       144   1 6.940647e-10 1.548402e-10  22.8965   0.2423  6.48   1506.4419    219.2077     0.733     0.453  69.21
       145   1 7.616374e-09 2.671247e-10  20.2956   0.0381  3.50    838.7825    239.1823     1.860     1.767 -11.68
       146   1 7.507326e-10 1.511085e-10  22.8113   0.2186  7.91   1402.6560    221.3235     0.578     0.333  44.12
       147   1 8.096365e-10 1.548402e-10  22.7293   0.2077  8.19    534.6669    221.6488     0.585     0.329 -45.70
       148   1   1.0022e-07 4.751534e-10  17.4976   0.0051  3.50    867.0515    346.3826     3.105     2.640  68.98
       149   1 1.080077e-09 1.998978e-10  22.4164   0.2010  5.36   1553.2638    233.3830     0.888     0.847 -74.99
       150   1 1.008786e-08 4.412007e-10  19.9905   0.0475  5.44   1372.8217    251.5750     2.009     1.822  55.69
       151   1 2.468669e-09 3.178671e-10  21.5188   0.1398  6.70   1478.8383    239.4040     1.210     1.061 -31.03
       152   1 2.597878e-07 3.445805e-10  16.4635   0.0014  3.50   1486.4592    287.5184     2.303     2.277 -73.95
       153   1 5.513469e-09  2.39061e-10  20.6464   0.0471  5.26    107.5043    250.5009     1.688     1.360  52.18
       154   1 3.847179e-06 4.206683e-10  13.5371   0.0001  3.50    890.8215    351.4105     2.936     2.738 -44.06
       155   1 2.565587e-09 2.877021e-10  21.4770   0.1218  5.19   1414.7177    248.6718     1.448     1.204  28.49
       156   1 3.635603e-06 4.138277e-10  13.5986   0.0001  3.50   1345.8783    351.4301     2.886     2.694 -47.40
       157   1 3.238292e-09 1.896397e-10  21.2242   0.0636  3.50   1352.7795    253.4011     1.316     1.256  45.73
       158   1 2.276447e-09 3.012711e-10  21.6069   0.1437  6.63   1550.7070    250.6767     1.270     0.918  63.54
       159   1 1.570995e-09 2.584354e-10  22.0096   0.1787  6.08    151.0695    249.7390     1.144     0.870  31.91
       160   1 6.898563e-10 1.492077e-10  22.9031   0.2349  5.22    562.2552    248.7933     0.773     0.556 -44.51
       161   1 7.596405e-07 3.837681e-10  15.2985   0.0005  3.50    905.4391    318.7152     2.741     2.447 -54.50
       162   1 9.765345e-09 5.813261e-10  20.0258   0.0646  8.23    369.8488    269.5684     2.548     1.087 -83.65
       163   1 5.789547e-08 2.945648e-10  18.0934   0.0055  3.50   1522.3586    281.8954     1.987     1.971 -50.66
       164   1 9.894836e-10 1.722902e-10  22.5115   0.1891  7.97    695.4882    252.5141     0.507     0.493  44.88
       165   1 2.404471e-09 2.202766e-10  21.5475   0.0995  3.91    123.9241    265.4633     1.579     1.087  81.66
       166   1 6.595257e-09 3.437511e-10  20.4519   0.0566  4.84   1273.6167    270.7132     1.781     1.591   2.05
       167   1 3.116587e-09 3.543809e-10  21.2658   0.1235  5.81    724.5475    265.1384     1.496     1.373 -80.63
       168   1 1.178363e-09 2.215686e-10  22.3218   0.2042  7.43   1209.0343    262.3040     0.754     0.671   2.60
       169   1 7.129199e-10 1.850694e-10  22.8674   0.2819  6.42    483.0061    262.0373     0.884     0.530  44.83
       170   1 1.934755e-07 3.214388e-10  16.7834   0.0018  3.50    201.7356    303.1477     2.208     2.137 -68.66
       171   1 1.538344e-08 4.110596e-10  19.5324   0.0290  3.50   1413.5863    297.3348     3.801     2.017 -42.59
       172   1 2.336317e-08 3.115182e-10  19.0787   0.0145  3.50    515.0456    289.8133     2.111     2.053  -9.15
       173   1  1.41051e-09  2.37726e-10  22.1266   0.1830  6.98   1388.6305    268.0417     0.949     0.687  20.33
       174   1  1.29159e-09 1.492077e-10  22.2222   0.1255  3.50   1250.1136    271.3406     1.171     0.882  11.03
       175   1 2.521148e-08 2.692532e-10  18.9960   0.0116  3.50   1327.5511    293.8979     1.879     1.753 -70.18
       176   1 1.568425e-09 2.671247e-10  22.0113   0.1850  6.24   1377.8120    276.1920     1.387     0.728 -52.24
       177   1 9.137916e-09  2.56211e-10  20.0979   0.0304  4.37   1475.7302    293.3912     1.852     1.698  41.95
       178   1 1.606638e-09 2.241302e-10  21.9852   0.1515  7.59   1370.9344    275.6912     0.731     0.672   4.46
       179   1  1.03715e-09 2.082887e-10  22.4604   0.2181  7.79    726.0198    273.5338     0.795     0.499   1.68
       180   1 5.285792e-10 1.241483e-10  23.1922   0.2551  6.58    223.3213    273.3032     0.559     0.342 -44.00
       181   1 3.422685e-09 3.503307e-10  21.1641   0.1112  5.88    887.4233    295.3086     1.761     1.136 -67.51
       182   1 1.080167e-09 1.453315e-10  22.4163   0.1461  3.50    557.5465    279.2254     1.524     0.633 -10.22
       183   1 5.667862e-09 4.082728e-10  20.6165   0.0782  7.93    415.2635    288.4876     1.435     1.049  -9.45
       184   1 3.102244e-09 2.215686e-10  21.2708   0.0776  3.96    248.4279    292.5336     1.559     1.155 -46.29
       185   1  1.45811e-09 2.471444e-10  22.0905   0.1841  6.64    338.2226    285.8897     0.984     0.761 -27.82
       186   1 1.285385e-07 3.059714e-10  17.2274   0.0026  3.50    697.3331    322.0803     2.078     2.056 -35.89
       187   1 1.016347e-08 2.517216e-10  19.9824   0.0269  3.50    563.7834    302.2479     1.720     1.660  23.73
       188   1 1.101373e-09 1.984648e-10  22.3952   0.1957  5.60   1350.9994    287.8572     1.043     0.651 -32.60
       189   1 7.347893e-09 4.539548e-10  20.3346   0.0671  5.17     85.7761    308.5833     2.450     1.758  46.61
       190   1  9.99131e-10 1.722902e-10  22.5009   0.1873  8.57    781.5087    292.5072     0.501     0.499 -45.39
       191   1 4.480205e-10 1.241483e-10  23.3718   0.3009  6.31      6.3431    292.3293     0.580     0.332 -44.42
       192   1 1.143277e-08 3.486975e-10  19.8546   0.0331  3.50    641.4081    321.6361     2.681     2.089 -68.14
       193   1 2.643755e-08 3.815303e-10  18.9444   0.0157  3.86    595.3776    327.4720     2.364     2.322 -67.81
       194   1 3.681244e-09 3.976481e-10  21.0850   0.1173  7.24    317.8333    311.5279     1.347     1.252  86.23
       195   1 1.575482e-09 1.911389e-10  22.0065   0.1318  4.06    985.4393    309.8429     1.173     1.050 -46.02
       196   1 2.410093e-09 2.436552e-10  21.5449   0.1098  4.42    226.7608    317.1003     1.503     1.124 -27.42
       197   1 9.150615e-10 1.866053e-10  22.5964   0.2215  5.73   1268.0851    314.8703     0.842     0.666  43.14
       198   1 8.625481e-10 1.835207e-10  22.6605   0.2311  7.43    155.4139    314.7946     0.742     0.451 -70.37
       199   1 1.211562e-09 2.436552e-10  22.2916   0.2184  7.60   1452.4601    316.0229     0.847     0.694   1.45
       200   1 7.179601e-10 1.722902e-10  22.8597   0.2606  8.00   1496.5060    313.4767     0.501     0.499  38.62
       201   1 3.772659e-09 3.160662e-10  21.0584   0.0910  4.85    955.5095    324.6544     1.700     1.387  27.99
       202   1 5.394644e-09 2.459869e-10  20.6701   0.0495  3.83   1440.5873    334.7737     1.709     1.350 -64.55
       203   1 5.509358e-09 2.215686e-10  20.6472   0.0437  3.50     93.4799    332.1097     1.533     1.431  57.87
       204   1 1.651387e-09 2.551006e-10  21.9554   0.1678  6.15    342.0922    325.0381     1.211     0.773  66.90
       205   1 9.870428e-10 2.013206e-10  22.5142   0.2215  6.37    576.2605    321.1431     1.088     0.518  34.36
       206   1 4.517514e-09 2.448238e-10  20.8628   0.0589  4.27   1546.1680    329.2512     1.410     1.285 -29.07
       207   1 7.548708e-08 3.559881e-10  17.8053   0.0051  3.50    431.8357    355.8422     2.466     2.334  74.40
       208   1 1.269815e-08 2.786304e-10  19.7406   0.0238  3.81     54.7816    350.0375     1.777     1.685 -51.37
       209   1 1.783814e-09 2.340963e-10  21.8716   0.1425  5.03    813.0850    337.4320     1.164     1.050   6.69
       210   1 1.369142e-07 3.706284e-10  17.1589   0.0029  3.50    761.1053    368.1499     2.166     2.095 -27.29
       211   1 1.186616e-09 2.189771e-10  22.3142   0.2004  6.01    623.5881    336.1552     1.104     0.683 -50.85
       212   1 1.152907e-09 2.202766e-10  22.3455   0.2075  6.39    610.0641    337.5028     1.052     0.659  63.56
       213   1 5.109015e-08 3.050372e-10  18.2292   0.0065  3.50    442.7966    367.3546     2.132     1.976  75.96
       214   1 3.548859e-09 3.678181e-10  21.1248   0.1126  6.29    805.5751    339.4039     1.949     0.994  -6.98
       215   1 6.426126e-07 3.551854e-10  15.4801   0.0006  3.50    231.4283    395.2424     2.460     2.327 -56.54
       216   1 2.301124e-09    2.254e-10  21.5951   0.1064  4.46     42.7132    348.4308     1.293     1.078 -80.36
       217   1 9.217316e-10 2.027334e-10  22.5885   0.2389  6.58   1503.8145    340.6995     0.850     0.616 -27.18
       218   1 2.373344e-08 2.786304e-10  19.0616   0.0127  3.50   1500.2892    361.1131     1.962     1.764 -13.54
       219   1  4.11499e-09 3.370432e-10  20.9641   0.0890  5.13   1415.4884    363.0355     1.767     1.347  79.70
       220   1 7.001717e-09 2.471444e-10  20.3870   0.0383  3.84   1034.0571    360.5056     1.617     1.409 -43.57
       221   1  4.77739e-09  2.37726e-10  20.8020   0.0540  3.66    533.1792    359.8228     1.605     1.483 -31.81
       222   1 1.245504e-09 1.911389e-10  22.2616   0.1667  5.12   1398.6581    356.0407     1.003     0.762  78.06
       223   1 8.829831e-09 2.976178e-10  20.1351   0.0366  3.52    754.0452    375.3468     2.895     1.464  53.04
       224   1 6.010902e-09  2.85711e-10  20.5527   0.0516  4.86      1.9897    380.5159     2.907     0.928 -89.41
       225   1 1.733345e-09 2.628159e-10  21.9028   0.1647  5.20    369.4446    361.6711     1.407     0.985 -57.18
       226   1 9.333887e-10 1.722902e-10  22.5748   0.2005  8.15   1580.0127    352.5267     0.809     0.308  31.67
       227   1 2.800497e-09 2.692532e-10  21.3819   0.1044  4.83    210.2289    369.4177     1.433     1.193   4.01
       228   1 7.012316e-10 1.511085e-10  22.8853   0.2340  7.88    350.6699    353.6643     0.577     0.334 -45.24
       229   1 6.151742e-09  2.71365e-10  20.5275   0.0479  3.50   1083.7919    373.2746     1.893     1.780 -43.56
       230   1 7.761431e-09 2.291674e-10  20.2751   0.0321  3.50    992.5322    372.8584     1.659     1.486  47.74
       231   1 7.247508e-10 1.351556e-10  22.8495   0.2025  7.46    828.6603    355.6804     0.574     0.335 -44.10
       232   1  1.22145e-09 2.328739e-10  22.2828   0.2070  7.29   1048.0951    359.1739     0.851     0.670 -42.50
       233   1 4.635729e-09 2.867083e-10  20.8347   0.0672  4.41     71.8018    370.5033     1.659     1.401 -37.69
       234   1 9.239435e-08 3.087573e-10  17.5859   0.0036  3.50   1461.1882    397.0923     2.100     2.048  78.15
       235   1 1.182938e-09 1.926263e-10  22.3176   0.1768  5.21    941.4666    365.7309     0.916     0.828  30.51
       236   1 7.587763e-10 1.722902e-10  22.7997   0.2466  8.22   1450.5018    360.4841     0.501     0.499 -40.01
       237   1 4.531893e-09 3.133453e-10  20.8593   0.0751  5.60    125.5973    380.1856     1.395     1.262  52.85
       238   1 5.846184e-07 3.478779e-10  15.5828   0.0006  3.50    433.3299    419.6328     2.397     2.308 -49.38
       239   1 1.074856e-08 3.678181e-10  19.9216   0.0372  3.50    626.9368    396.9037     2.931     2.072  86.31
       240   1 1.062965e-07 3.022171e-10  17.4337   0.0031  3.50    354.6175    398.1783     2.077     2.021 -38.74
       241   1 2.309149e-09 1.881286e-10  21.5914   0.0885  3.87     87.1904    375.4480     1.249     1.089 -28.14
       242   1 2.846521e-07 3.319232e-10  16.3642   0.0013  3.50    837.4086    415.6500     2.263     2.210 -44.09
       243   1 1.275064e-08  4.46346e-10  19.7362   0.0380  4.99      2.6706    411.8836     4.115     1.633 -87.34
       244   1 3.675018e-09 3.124331e-10  21.0869   0.0923  5.21     67.2460    382.5742     1.540     1.303  -9.96
       245   1 3.290196e-09 3.845111e-10  21.2069   0.1269  7.01     11.1561    382.5035     1.504     1.108  56.79
       246   1 2.199848e-08 2.703112e-10  19.1440   0.0133  3.50   1088.6908    393.7079     1.884     1.770 -11.63
       247   1 1.504465e-09 1.672465e-10  22.0565   0.1207  3.65    512.4766    379.6679     1.234     0.936  33.53
       248   1  9.67875e-10 2.013206e-10  22.5355   0.2259  6.47   1484.5872    382.1455     0.896     0.604 -11.13
       249   1 1.759172e-06 3.830236e-10  14.3867   0.0002  3.50    807.6354    461.0851     2.659     2.511 -43.27
       250   1 2.290568e-09 1.755723e-10  21.6001   0.0832  3.50   1195.4128    388.9277     1.321     1.091  22.92
       251   1  5.77887e-09 3.041001e-10  20.5954   0.0571  3.97    526.6250    403.6989     2.251     1.486  65.68
       252   1 4.172085e-09 2.539792e-10  20.9491   0.0661  4.15    977.6921    396.4258     1.519     1.373  67.23
       253   1 1.554053e-09 2.266628e-10  22.0213   0.1584  8.71    249.9678    383.4894     0.790     0.500   1.72
       254   1 1.823735e-09 1.850694e-10  21.8476   0.1102  3.50     95.5984    392.2231     1.376     1.125 -13.82
       255   1 2.129771e-09  2.71365e-10  21.6792   0.1384  6.11    260.8218    389.5615     1.166     0.955 -20.73
       256   1 1.422462e-09 2.539792e-10  22.1174   0.1939  5.84    146.1537    394.3021     1.258     0.839  50.62
       257   1  1.17026e-09 2.163545e-10  22.3293   0.2008  6.21    683.7133    392.7152     0.929     0.748 -42.82
       258   1 4.666356e-10  1.73939e-10  23.3276   0.4048  7.93    103.9801    387.0000     0.869     0.289   0.00
       259   1 5.158062e-08 2.993704e-10  18.2188   0.0063  3.50    926.3719    424.1219     2.050     1.991  16.00
       260   1 1.335672e-09 2.215686e-10  22.1858   0.1802  4.91    812.4683    401.1451     1.237     0.913  66.58
       261   1 2.100343e-07 3.258483e-10  16.6943   0.0017  3.50    252.0658    437.9535     2.237     2.179  65.39
       262   1 1.418078e-08 7.171688e-10  19.6208   0.0549  6.17    134.2625    421.9095     3.032     2.480 -29.43
       263   1 4.286717e-09 3.551854e-10  20.9197   0.0900  5.13   1562.1951    413.3537     2.089     1.268 -62.25
       264   1 3.487594e-09  2.31645e-10  21.1437   0.0721  4.20    282.2903    407.2738     1.369     1.250  78.63
       265   1 1.372938e-08  3.99081e-10  19.6559   0.0316  4.56    159.0926    420.7981     2.161     1.975  37.31
       266   1 4.065909e-09 2.974574e-10  20.9771   0.0795  4.23    559.4391    415.3112     1.723     1.588  61.29
       267   1 5.524017e-10 1.194618e-10  23.1444   0.2349  4.54    986.2007    402.1979     1.183     0.336 -10.85
       268   1   1.7367e-08 2.826982e-10  19.4007   0.0177  3.66   1422.0804    432.9035     1.856     1.783  73.47
       269   1 7.757629e-09 3.293334e-10  20.2757   0.0461  4.06   1179.2250    426.6679     2.187     1.672  34.78
       270   1 3.964563e-09 3.462331e-10  21.0045   0.0948  5.78   1204.2970    418.8730     1.438     1.403  -6.44
       271   1 1.155109e-07 7.147307e-10  17.3434   0.0067  3.89    850.7427    467.8561     9.093     2.788  22.69
       272   1 8.715959e-09 3.559881e-10  20.1492   0.0444  3.50    719.4417    431.0148     2.567     2.265  57.82
       273   1  3.08693e-09 2.539792e-10  21.2762   0.0894  5.21   1580.6505    419.6498     1.148     1.115  64.40
       274   1 3.026642e-09 2.136997e-10  21.2976   0.0767  3.60    774.6498    419.3523     1.466     1.354 -44.60
       275   1 2.111571e-09   3.0316e-10  21.6885   0.1559  7.63    180.8748    414.3189     1.225     0.723 -21.54
       276   1 1.140118e-09 1.984648e-10  22.3576   0.1890  7.44    153.0326    411.5112     0.791     0.500   0.17
       277   1 1.765262e-09 2.328739e-10  21.8830   0.1433  5.33    940.2948    417.5471     1.194     0.892  13.88
       278   1 2.409685e-09 2.606348e-10  21.5451   0.1175  5.18   1063.9486    424.5194     1.296     1.107  52.14
       279   1 6.734017e-08 3.078315e-10  17.9293   0.0050  3.50     21.3218    450.2894     2.164     2.018  50.06
       280   1 1.124006e-09 2.459869e-10  22.3731   0.2377  7.18   1296.5117    418.1511     1.121     0.588 -25.67
       281   1 1.629354e-09 2.755401e-10  21.9700   0.1837  8.26    632.7367    421.4732     1.177     0.527  68.93
       282   1 2.071302e-09 1.755723e-10  21.7094   0.0921  3.71    299.9695    426.1653     1.172     1.046 -21.58
       283   1 7.244041e-10 1.068499e-10  22.8500   0.1602  3.50   1092.3003    420.7040     0.974     0.579  18.70
       284   1 1.129743e-08 2.755401e-10  19.8676   0.0265  3.50    122.2447    445.0782     1.975     1.755 -60.10
       285   1 6.509902e-09 2.628159e-10  20.4661   0.0438  4.17    151.1427    434.2022     1.571     1.423  -6.07
       286   1 7.526709e-08 3.050372e-10  17.8085   0.0044  3.50     34.5815    457.8254     2.078     2.046  70.53
       287   1 3.018501e-09 2.970025e-10  21.3005   0.1069  5.26    119.9051    435.6417     1.675     1.446  87.24
       288   1  1.36378e-08 3.599746e-10  19.6631   0.0287  3.50    883.8508    447.3934     2.965     1.983   9.63
       289   1 7.014351e-09 2.163545e-10  20.3850   0.0335  3.50    305.7387    439.9559     1.470     1.449 -69.87
       290   1 1.572306e-09 2.266628e-10  22.0087   0.1566  5.89   1309.0500    429.7229     1.005     0.817  56.03
       291   1 1.179182e-09 1.741221e-10  22.3210   0.1604  7.02    242.0024    426.8713     1.340     0.636  18.96
       292   1 1.713558e-09  1.58484e-10  21.9153   0.1004  3.50    406.2127    433.4781     1.142     1.000  36.11
       293   1 8.582753e-10 1.866053e-10  22.6659   0.2361  6.29   1008.2231    426.5943     1.031     0.471   8.72
       294   1   1.8258e-09 2.916434e-10  21.8464   0.1735  6.17   1382.7202    437.4913     1.466     0.844  67.15
       295   1 1.421395e-09 1.835207e-10  22.1182   0.1402  4.52    353.3749    433.7800     0.989     0.935   6.80
       296   1 3.428355e-08 4.960182e-10  18.6623   0.0157  3.72     82.8124    496.3125     3.466     2.848 -84.61
       297   1 3.122775e-09 2.724148e-10  21.2636   0.0947  4.79    174.5264    443.9568     1.439     1.286 -80.72
       298   1 2.551103e-09 2.202766e-10  21.4832   0.0938  4.39    655.1221    443.7735     1.269     1.076  17.08
       299   1  1.26878e-09 1.722902e-10  22.2415   0.1475  4.32    959.6575    442.3627     0.989     0.863 -43.28
       300   1 5.988118e-10  1.58484e-10  23.0568   0.2874  7.33     54.4990    437.4732     0.500     0.499  18.51
       301   1 3.090296e-07  8.65418e-10  16.2750   0.0030  3.58    518.8517    533.0645     6.350     5.130  28.21
       302   1  2.39902e-08 2.724148e-10  19.0499   0.0123  3.50    468.6242    463.6575     1.928     1.784  68.90
       303   1 2.876799e-09 3.232098e-10  21.3527   0.1220  6.00   1505.3765    445.8104     1.334     1.179  37.02
       304   1 4.328285e-09 2.638997e-10  20.9092   0.0662  4.52   1533.1954    452.6847     1.438     1.310  -7.51
       305   1 8.009694e-09 2.424809e-10  20.2410   0.0329  3.50   1096.1470    460.9770     1.802     1.504  40.80
       306   1 2.971107e-09 3.041001e-10  21.3177   0.1112  5.51   1224.4924    454.2432     1.364     1.244 -65.15
       307   1 2.136352e-08 3.022171e-10  19.1758   0.0154  3.50    254.5097    471.6797     2.304     1.778  55.82
       308   1 1.428079e-09 2.389236e-10  22.1131   0.1817  6.49   1354.5115    450.3640     0.930     0.814 -11.48
       309   1 5.666303e-09 3.214388e-10  20.6168   0.0616  4.42    725.0565    461.7737     2.069     1.416 -12.14
       310   1 1.050579e-09 1.896397e-10  22.4464   0.1960  5.00   1131.4872    451.8056     1.086     0.714  37.81
       311   1 2.974908e-08 2.755401e-10  18.8163   0.0101  3.50    734.8536    472.0732     1.867     1.807  54.19
       312   1  3.61235e-09 3.454078e-10  21.1055   0.1038  4.90   1132.6100    473.4886     2.577     1.073  78.73
       313   1 4.724605e-10 1.241483e-10  23.3141   0.2854  6.56    405.6425    448.3071     0.576     0.333  42.80
       314   1 3.836378e-08 2.826982e-10  18.5402   0.0080  3.50    923.0436    477.8884     1.951     1.863 -27.10
       315   1 3.953547e-09 4.019317e-10  21.0075   0.1104  6.47   1198.3060    466.8161     1.489     1.439  26.15
       316   1 3.018231e-09 3.830236e-10  21.3006   0.1378  6.60    128.7036    465.3910     1.475     1.265  35.86
       317   1 8.023058e-10 1.755723e-10  22.7392   0.2377  6.21   1385.3159    458.3633     0.880     0.522 -45.24
       318   1 4.517604e-10 1.241483e-10  23.3627   0.2984  6.68   1238.3285    455.6975     0.561     0.341  43.62
       319   1 3.694553e-08 6.082001e-10  18.5811   0.0179  4.43   1186.7743    495.9013     3.838     2.732 -30.84
       320   1 1.495156e-08 3.133453e-10  19.5633   0.0228  4.16   1277.0219    478.0377     1.807     1.707 -83.80
       321   1 1.762312e-09 1.689445e-10  21.8848   0.1041  3.50    561.7579    465.7749     1.270     1.013  66.48
       322   1 1.074443e-08 4.158917e-10  19.9220   0.0420  4.41    839.6633    489.0433     3.077     1.610  89.25
       323   1 5.239704e-09 3.232098e-10  20.7017   0.0670  3.50    426.4010    487.0133     3.255     1.480 -46.96
       324   1 1.673526e-08  2.66054e-10  19.4409   0.0173  3.50   1070.6445    483.9922     1.848     1.724 -23.55
       325   1 4.504287e-09 4.068722e-10  20.8659   0.0981  5.94   1519.8956    480.8374     1.847     1.400 -54.91
       326   1 2.082839e-09 2.215686e-10  21.7034   0.1155  4.54    782.2515    473.0150     1.334     0.996  35.66
       327   1 4.030503e-09 2.027334e-10  20.9866   0.0546  3.50    682.8112    478.9308     1.466     1.266 -83.42
       328   1 3.852004e-06 4.508001e-10  13.5358   0.0001  3.50   1316.0563    587.7902     3.372     2.744 -38.84
       329   1  1.02852e-09 1.998978e-10  22.4695   0.2111  6.52    664.1403    469.7042     0.871     0.590  29.66
       330   1 3.283971e-09  2.31645e-10  21.2090   0.0766  3.98   1310.2072    481.0481     1.526     1.257  -2.12
       331   1 3.525265e-09  2.37726e-10  21.1320   0.0732  4.68   1168.2925    475.9606     1.227     1.155  -6.99
       332   1 1.573725e-07 3.799984e-10  17.0077   0.0026  3.50   1302.4139    512.4189     2.200     2.174  41.08
       333   1 5.463284e-10 1.241483e-10  23.1564   0.2468  6.88   1358.6615    473.3195     0.573     0.335  44.14
       334   1  1.82234e-08 3.639175e-10  19.3484   0.0217  3.50    762.9810    504.1624     2.579     2.364 -23.96
       335   1 4.891364e-08 5.567483e-10  18.2764   0.0124  3.84   1460.9141    515.1902     5.186     2.265  24.38
       336   1 5.339552e-06 5.011703e-10  13.1812   0.0001  3.50    483.2146    631.1666     3.496     3.266 -37.86
       337   1 1.271088e-09 1.970214e-10  22.2396   0.1683  5.28    829.3271    486.4254     0.921     0.823 -67.97
       338   1 1.905739e-09 1.672465e-10  21.7998   0.0953  3.50    574.4282    492.7912     1.327     0.986 -84.94
       339   1  7.52407e-09 3.100157e-10  20.3089   0.0447  4.86   1310.3086    501.6238     2.661     1.712 -68.86
       340   1 6.560926e-10 1.689445e-10  22.9576   0.2796  7.18    943.7304    485.9743     1.050     0.291  40.14
       341   1 1.055724e-08 2.494435e-10  19.9411   0.0257  3.62    863.8047    501.9097     1.706     1.547  13.21
       342   1 4.086922e-09 1.998978e-10  20.9715   0.0531  3.50    366.2877    497.9719     1.397     1.305  25.62
       343   1  1.77401e-09 2.291674e-10  21.8776   0.1403  4.71   1421.3408    495.2483     1.275     1.034 -70.42
       344   1 3.587923e-09 4.103647e-10  21.1129   0.1242  7.39    326.4946    505.2831     1.627     1.052  75.60
       345   1 1.388162e-09 1.433541e-10  22.1439   0.1122  3.50    443.0220    502.5660     1.237     0.744  90.00
       346   1 1.613046e-08 2.097489e-10  19.4809   0.0141  3.82   1310.3154    513.2294     1.766     1.574 -68.89
       347   1 1.113392e-08 3.078315e-10  19.8834   0.0300  4.25   1179.2770    513.7638     1.737     1.692 -40.42
       348   1 1.050828e-08 3.685933e-10  19.9462   0.0381  4.42    164.3942    509.9059     2.503     1.558  -2.17
       349   1  2.86343e-09 1.984648e-10  21.3578   0.0753  3.50    453.6938    509.8496     1.385     1.263  64.91
       350   1 1.726852e-09 2.328739e-10  21.9069   0.1465  5.38   1569.2483    504.7254     1.107     0.940  66.78
       351   1 7.326185e-09 2.539792e-10  20.3378   0.0376  3.50    641.9789    519.2697     1.852     1.575 -67.74
       352   1 1.542583e-09 1.689445e-10  22.0294   0.1189  3.50    308.6864    509.1384     1.231     1.052  62.02
       353   1 6.425397e-10 1.722902e-10  22.9802   0.2912  8.00   1335.5151    506.9955     0.792     0.315  57.71
       354   1  3.58294e-09 2.595374e-10  21.1144   0.0787  4.63   1519.1892    518.1902     1.440     1.221  88.34
       355   1 3.899979e-09 3.293334e-10  21.0223   0.0917  5.57    853.8316    520.8681     1.529     1.269 -76.73
       356   1 1.113098e-09 1.768537e-10  22.3837   0.1725  7.26    167.0743    517.3797     1.040     0.751  74.70
       357   1 1.394975e-09 2.617276e-10  22.1386   0.2038  5.90    581.6898    520.3840     1.224     0.880 -25.56
       358   1 2.355947e-08 2.786304e-10  19.0696   0.0128  3.50    999.9592    540.2465     1.906     1.847  59.70
       359   1 1.025042e-09 1.655311e-10  22.4731   0.1754  8.78    829.6716    519.6612     0.578     0.333 -45.45
       360   1  5.00407e-09 2.671247e-10  20.7517   0.0580  3.50    934.1313    544.3890     2.611     1.243 -62.23
       361   1 5.539877e-09 2.471444e-10  20.6412   0.0484  3.50    404.4360    536.1951     1.929     1.447  34.33
       362   1 9.637463e-08 3.503307e-10  17.5401   0.0039  3.50   1242.9709    572.6663     2.592     2.155 -62.81
       363   1  1.50886e-09  2.56217e-10  22.0534   0.1844  6.37    165.1160    529.6624     1.073     0.843  56.72
       364   1 2.078746e-09 2.606348e-10  21.7055   0.1362  5.72   1566.6019    531.5682     1.201     0.957 -11.78
       365   1  3.17096e-08 2.847103e-10  18.7470   0.0098  3.50   1041.8269    558.9429     1.966     1.892 -77.35
       366   1 1.274502e-07 3.124331e-10  17.2366   0.0027  3.50    144.9436    580.6854     2.121     2.073  84.82
       367   1 1.965345e-09 2.202766e-10  21.7664   0.1217  4.46    851.6782    546.3800     1.251     1.081  15.25
       368   1 8.676052e-08 5.987407e-10  17.6542   0.0075  3.50    782.8576    596.5933     4.165     3.933 -62.49
       369   1 2.484208e-08 4.033494e-10  19.0120   0.0176  3.50   1448.4083    571.4637     3.389     2.217  19.93
       370   1 2.340815e-08 3.378889e-10  19.0766   0.0157  3.50     45.8355    571.3043     2.701     1.923  42.80
       371   1 2.859096e-09 1.771905e-10  21.3594   0.0673  3.50    778.7778    555.8065     1.235     1.158  47.90
       372   1 1.268682e-07 3.078315e-10  17.2416   0.0026  3.50    319.2187    582.2037     2.104     2.051  12.19
       373   1 3.646165e-09 4.165775e-10  21.0954   0.1241  6.63   1068.9191    558.9773     1.671     1.335 -80.94
       374   1  5.69986e-09 2.755401e-10  20.6103   0.0525  4.48    139.5483    564.9611     1.528     1.445  88.21
       375   1 4.469126e-09 4.213463e-10  20.8744   0.1024  6.03   1406.4041    559.4667     2.166     1.259  15.61
       376   1 1.516491e-09 2.279186e-10  22.0479   0.1632  6.27    965.7048    553.8892     0.998     0.751  13.57
       377   1 2.165632e-09 2.215686e-10  21.6610   0.1111  4.14   1170.0270    564.4588     1.455     1.092 -63.94
       378   1 1.780179e-09 2.163545e-10  21.8738   0.1320  4.06    841.0360    562.8142     1.324     1.199 -78.16
       379   1 9.434118e-10 1.453315e-10  22.5632   0.1673  4.37    805.6343    554.8282     0.902     0.678 -18.21
       380   1 8.484982e-09  3.49515e-10  20.1784   0.0447  4.12   1002.0594    575.9620     2.024     1.966  67.51
       381   1 2.481071e-09  2.76574e-10  21.5134   0.1211  5.21    905.3970    562.9716     1.357     1.164  -3.84
       382   1  1.84818e-09 2.916434e-10  21.8331   0.1714  6.95   1504.4061    561.1907     1.052     0.928 -44.05
       383   1 2.757973e-09 3.486975e-10  21.3985   0.1373  6.82   1116.0284    567.3278     1.387     1.055 -13.38
       384   1 1.676829e-09 1.672465e-10  21.9388   0.1083  3.50    632.2460    567.1195     1.206     1.065  49.68
       385   1 1.692054e-09 2.896794e-10  21.9290   0.1859  6.15   1110.6550    570.4034     1.229     1.027   1.26
       386   1 1.424909e-09 1.689445e-10  22.1155   0.1288  3.50    114.2919    570.5200     1.206     1.070 -75.80
       387   1 3.016817e-09 2.964964e-10  21.3011   0.1067  4.50    739.4836    578.0326     1.928     1.266  40.87
       388   1 3.219836e-09 2.955321e-10  21.2304   0.0997  4.65    845.0079    578.4060     2.298     0.977  18.81
       389   1 8.597865e-09 2.365223e-10  20.1640   0.0299  3.50     76.0102    584.4973     1.612     1.532 -64.73
       390   1 2.430573e-09 3.232098e-10  21.5357   0.1444  5.82    679.4770    579.3314     1.530     1.114 -82.41
       391   1 1.529575e-09 2.459869e-10  22.0386   0.1747  5.20   1212.9761    574.7535     1.302     0.971   6.13
       392   1 1.268422e-09 2.189771e-10  22.2418   0.1875  5.57    549.3867    574.6494     1.005     0.881 -37.04
       393   1 5.704318e-10 1.351556e-10  23.1095   0.2573  6.42   1178.5123    569.4855     0.511     0.488  44.93
       394   1 5.836124e-10  1.58484e-10  23.0847   0.2949  8.43   1140.2980    569.3462     0.567     0.338 -47.38
       395   1 2.425519e-09 3.240917e-10  21.5380   0.1451  6.08   1100.7925    583.8486     1.413     1.123  68.97
       396   1 1.281989e-09 2.027334e-10  22.2303   0.1717  5.32   1487.0277    582.1308     1.137     0.721  68.60
       397   1 3.624224e-09 3.087573e-10  21.1020   0.0925  5.48   1173.0504    585.4210     1.459     1.220 -59.97
       398   1 8.693457e-10 1.819588e-10  22.6520   0.2273  6.13    696.3134    578.9062     0.738     0.661 -76.97
       399   1 2.542196e-09 2.877021e-10  21.4870   0.1229  5.75   1139.2427    588.2821     1.369     1.010  51.51
       400   1 7.718229e-10 1.170482e-10  22.7812   0.1647  3.50   1185.1156    583.6809     0.930     0.679  69.90
       401   1 9.514148e-10 1.511085e-10  22.5541   0.1725  7.91    483.6573    578.6655     0.582     0.331 -44.67
       402   1 1.561047e-08  2.64979e-10  19.5165   0.0184  3.52    586.4163    605.4504     1.852     1.737 -81.71
       403   1 5.564716e-10 1.145837e-10  23.1364   0.2236  5.65   1558.0402    578.0000     0.860     0.289   0.00
       404   1 9.273728e-10 1.602748e-10  22.5819   0.1877  4.77    211.3593    584.8947     0.910     0.683  21.31
       405   1 2.056485e-09 2.365223e-10  21.7172   0.1249  4.59    882.3104    593.4551     1.393     1.098 -89.89
       406   1 8.353061e-07  3.57588e-10  15.1954   0.0005  3.50   1464.4012    648.2925     2.483     2.366 -58.51
       407   1 4.710244e-09 3.997956e-10  20.8174   0.0922  5.61      9.0599    991.0827     1.966     1.449 -59.37
       408   1 1.517138e-09 1.771905e-10  22.0474   0.1268  4.89    711.1735   1599.1066     1.400     0.703  -3.64
       409   1 1.372581e-08 3.535746e-10  19.6562   0.0280  4.60    654.7914   1597.1499     2.338     1.928   2.74
       410   1 3.261993e-09 2.340963e-10  21.2163   0.0779  4.37     18.8116   1598.8571     1.890     1.200  -1.13
       411   1 1.170433e-08 3.954889e-10  19.8291   0.0367  5.29    374.3333   1594.7092     2.160     1.767  56.45
       412   1 7.036639e-09 4.925536e-10  20.3816   0.0760  6.71    378.9472   1523.8862     1.881     1.606 -86.23
       413   1 1.129239e-09 1.819588e-10  22.3680   0.1750  6.93    532.8091   1522.5839     1.035     0.384 -85.05
       414   1 3.590523e-09 2.291674e-10  21.1121   0.0693  3.50     85.1065   1519.1322     1.701     1.447 -80.75
       415   1  1.04952e-07 3.169679e-10  17.4475   0.0033  3.50    392.6772   1514.8733     2.160     2.108 -13.20
       416   1 7.183483e-09 3.258483e-10  20.3592   0.0493  4.97    483.6176   1514.6777     1.592     1.501 -30.55
       417   1 4.100552e-07  3.56789e-10  15.9679   0.0009  3.50    269.3075   1507.1910     2.444     2.357  18.70
       418   1 5.354377e-10 1.241483e-10  23.1782   0.2518  5.25   1124.8119   1497.5781     0.742     0.449  20.45
       419   1 1.648866e-09 2.551006e-10  21.9570   0.1680  5.94    930.4449   1496.3811     1.081     0.947 -47.34
       420   1 1.501048e-09 2.389236e-10  22.0590   0.1729  8.03    673.7607   1497.5944     0.999     0.480  -6.78
       421   1 1.378395e-09 1.771905e-10  22.1516   0.1396  3.72    826.8524    950.4863     1.233     1.009  28.76
       422   1 5.253778e-09 2.573285e-10  20.6988   0.0532  4.03    445.2121    947.7354     1.622     1.405 -87.86
       423   1 2.960107e-09 1.941024e-10  21.3217   0.0712  3.59    267.7740    949.6784     1.350     1.219 -51.37
       424   1  2.88794e-09 2.638997e-10  21.3485   0.0992  4.95    133.4788    947.4858     1.320     1.219 -13.69
       425   1 1.423684e-09 2.471444e-10  22.1165   0.1885  6.16     45.0941    947.6619     1.063     0.856  56.08
       426   1  2.52768e-08 2.806716e-10  18.9932   0.0121  3.50   1067.1434    939.0901     1.974     1.828  71.32
       427   1 2.411235e-09 2.291674e-10  21.5444   0.1032  4.26    726.2598    941.6227     1.423     1.128  66.73
       428   1 1.105202e-08  4.46346e-10  19.8914   0.0439  4.60    516.4306    938.0966     2.752     1.934  69.64
       429   1 7.678255e-10 1.955674e-10  22.7868   0.2766  8.50   1565.2383    938.2493     0.859     0.352  72.16
       430   1 1.952482e-07 3.258483e-10  16.7735   0.0018  3.50   1178.4652    929.6700     2.218     2.167 -68.19
       431   1 6.602733e-10 1.529857e-10  22.9507   0.2516  6.23    220.1936    937.5878     0.744     0.453 -18.99
       432   1 2.102279e-09 2.424809e-10  21.6933   0.1253  4.81   1118.0944    932.6188     1.385     1.013  46.95
       433   1 1.410228e-08 2.617276e-10  19.6268   0.0202  3.59   1322.5713    928.3491     1.806     1.648 -62.49
       434   1 2.229054e-09 2.926204e-10  21.6297   0.1426  5.83    666.2877    926.0283     1.402     0.995  58.16
       435   1 1.923197e-09 1.602748e-10  21.7899   0.0905  3.50     46.8679    925.9747     1.173     1.060 -65.86
       436   1 4.751214e-09 3.685933e-10  20.8080   0.0843  5.46   1199.0094    922.5722     2.027     1.274 -61.32
       437   1 1.473937e-09 2.471444e-10  22.0788   0.1821  7.53   1344.5306    919.8484     0.899     0.670 -35.51
       438   1 4.502349e-09 3.454078e-10  20.8664   0.0833  4.68    253.2354    916.7690     2.406     1.259  62.91
       439   1 7.270729e-10  1.58484e-10  22.8461   0.2367  7.31   1589.4943    918.5070     0.508     0.492 -44.97
       440   1 1.001524e-09  1.73939e-10  22.4983   0.1886  4.86   1112.9177    917.1721     0.943     0.757 -87.67
       441   1 7.783217e-10 2.041364e-10  22.7721   0.2848  8.33    934.4083    925.2224     0.740     0.454  71.16
       442   1 2.271918e-09 2.436552e-10  21.6090   0.1165  4.73   1119.5040    914.3288     1.448     1.024 -82.21
       443   1 1.102702e-08  2.37726e-10  19.8939   0.0234  3.50    838.6411    912.8751     1.675     1.551  67.09
       444   1 5.732101e-06 6.486236e-10  13.1042   0.0001  3.50    183.7858    882.0495     4.533     4.211 -39.76
       445   1 1.622303e-09 2.796529e-10  21.9747   0.1872  7.37    259.9730    909.0395     1.147     0.684  19.16
       446   1 7.176484e-10 1.655311e-10  22.8602   0.2505  9.10     90.6497    909.3268     0.582     0.331  44.05
       447   1 6.568834e-09 2.796529e-10  20.4563   0.0462  3.85   1315.2284    904.2458     1.935     1.511  72.52
       448   1 8.359435e-08   3.0316e-10  17.6946   0.0039  3.50    302.8130    900.4872     2.114     2.005 -72.17
       449   1 1.697464e-09 2.340963e-10  21.9255   0.1498  5.14    734.9686    904.1284     1.124     1.026  79.27
       450   1 1.265101e-09 1.393152e-10  22.2447   0.1196  3.50    122.1189    904.0554     1.157     0.768 -60.48
       451   1 1.535032e-09 1.896397e-10  22.0347   0.1342  6.62      1.9410    902.8880     0.915     0.752  89.42
       452   1 2.109603e-08 3.852527e-10  19.1895   0.0198  3.82    538.6534    896.0521     2.556     2.221  16.46
       453   1 1.160216e-09 1.655311e-10  22.3387   0.1549  4.56    379.5970    900.0614     0.964     0.734 -52.00
       454   1  4.97733e-10 8.276555e-11  23.2575   0.1806  3.50    450.8516    900.3800     0.751     0.440 -19.72
       455   1 2.955412e-09 2.328739e-10  21.3235   0.0856  4.21    987.4755    897.1966     1.433     1.228 -63.62
       456   1 1.135124e-09 2.055298e-10  22.3624   0.1966  5.83    729.7799    898.5048     0.959     0.724 -89.18
       457   1 1.407227e-06 3.678181e-10  14.6291   0.0003  3.50   1592.5177    880.2477     2.613     2.376 -70.40
       458   1  5.11965e-09 2.401152e-10  20.7269   0.0509  3.88   1426.1205    893.8388     1.531     1.415 -24.06
       459   1  3.26592e-09 3.284656e-10  21.2150   0.1092  7.67   1571.8810    894.7947     1.196     0.866  26.05
       460   1  4.98704e-10  1.73939e-10  23.2554   0.3788  6.48   1274.7909    892.8216     1.180     0.340 -78.65
       461   1 1.138033e-08 4.019317e-10  19.8596   0.0384  4.41    325.8101    888.7836     2.425     1.907  16.78
       462   1 1.069072e-08 3.395742e-10  19.9275   0.0345  4.01   1304.8226    885.4400     2.338     1.713  82.23
       463   1 3.187736e-09 2.993704e-10  21.2413   0.1020  5.03    681.2261    888.4789     1.633     1.199 -61.71
       464   1 6.386401e-10 1.145837e-10  22.9869   0.1948  4.04    990.7386    888.9772     0.737     0.659 -83.77
       465   1 1.515817e-09 2.755401e-10  22.0484   0.1974  8.28     15.2426    888.3456     1.026     0.591 -69.16
       466   1 1.138532e-08 2.528529e-10  19.8591   0.0241  3.61   1500.2910    885.6838     1.744     1.565 -33.98
       467   1 7.578675e-09 3.693669e-10  20.3010   0.0529  4.51    339.1404    885.0032     2.269     1.635   4.28
       468   1  3.56327e-06 5.057059e-10  13.6204   0.0002  3.50   1224.6622    859.0720     3.982     2.935 -43.34
       469   1 3.836097e-09 3.670413e-10  21.0403   0.1039  5.51    671.6304    879.6725     1.624     1.524 -80.48
       470   1 1.227885e-07 1.015917e-09  17.2771   0.0090  4.33    224.3533    879.1001     8.438     3.623  89.52
       471   1 7.429044e-09 2.304095e-10  20.3227   0.0337  3.50    961.0396    877.7355     1.632     1.468  64.74
       472   1 1.506792e-09  2.56217e-10  22.0549   0.1847  6.03    445.7132    883.5611     0.999     0.981 -70.75
       473   1 4.323278e-09 3.106006e-10  20.9105   0.0780  5.56    541.7358    876.4052     1.479     1.181  81.10
       474   1 3.857575e-08 3.591809e-10  18.5342   0.0101  3.50   1103.5417    869.4701     2.563     2.323 -46.00
       475   1 1.517789e-08 3.353452e-10  19.5470   0.0240  3.50    939.5144    867.6456     2.789     1.858  43.58
       476   1   3.9148e-09 2.505851e-10  21.0182   0.0695  4.42    643.8611    869.4371     1.453     1.213  70.74
       477   1 9.614122e-10 1.984648e-10  22.5427   0.2242  6.80   1436.0879    869.6965     0.716     0.669  -9.79
       478   1 2.026959e-09 1.835207e-10  21.7329   0.0983  3.50    454.6348    866.9086     1.327     1.153 -19.64
       479   1 2.548403e-09 2.539214e-10  21.4843   0.1082  7.38   1177.1245    866.1603     1.511     1.206 -51.42
       480   1 5.391687e-10 1.372511e-10  23.1707   0.2765  6.85    817.0000    866.9904     0.855     0.289  90.00
       481   1 1.918137e-09 2.353124e-10  21.7928   0.1332  4.85   1479.6982    865.0205     1.296     1.011  45.45
       482   1 2.286347e-09 2.671247e-10  21.6021   0.1269  5.42    355.2990    864.4731     1.354     1.012 -78.56
       483   1 2.387758e-09 3.445805e-10  21.5550   0.1567  6.84    773.6038    863.7509     1.593     0.887   7.06
       484   1  2.73277e-09 2.328739e-10  21.4085   0.0925  4.04    268.4081    862.2537     1.633     1.145  20.12
       485   1 6.158799e-09 2.215686e-10  20.5263   0.0391  3.50   1001.1723    912.3611     1.558     1.398  37.15
       486   1 1.103624e-08 2.482967e-10  19.8929   0.0244  3.50   1157.3868    859.5837     1.699     1.620  63.93
       487   1 3.777878e-09 3.258483e-10  21.0569   0.0937  6.15   1554.4648    860.7090     1.384     1.146  21.71
       488   1  9.89186e-09 3.503307e-10  20.0118   0.0385  4.50   1339.5402    858.4705     2.016     1.731 -44.66
       489   1 1.463023e-09 1.862625e-10  22.0869   0.1383  6.06   1347.4291    855.7446     1.106     0.954 -41.60
       490   1 9.231578e-10  1.58484e-10  22.5868   0.1864  5.08    636.9192    862.0997     0.863     0.654  43.51
       491   1 1.189734e-09 2.069139e-10  22.3114   0.1889  5.49    125.7044    915.8816     1.046     0.751  12.97
       492   1 2.434927e-09 3.370432e-10  21.5338   0.1503  6.42    574.4763    858.4477     1.481     1.032 -20.70
       493   1 4.507204e-09 3.078315e-10  20.8652   0.0742  4.57    545.2323    855.8073     1.813     1.413 -67.92
       494   1 9.312293e-10 1.998978e-10  22.5774   0.2331  6.63    686.3637    856.5313     1.103     0.456  54.84
       495   1  1.91416e-09 3.336386e-10  21.7951   0.1893  7.47   1430.5554    854.7623     1.453     0.777 -49.91
       496   1 1.147812e-09 1.896397e-10  22.3503   0.1794  5.63   1303.7367    850.8520     0.952     0.665 -19.92
       497   1 2.172472e-09  2.71365e-10  21.6576   0.1357  5.45   1575.8135    909.9774     1.302     1.073 -11.83
       498   1 1.176551e-09 2.266628e-10  22.3235   0.2092  6.68   1460.1355    848.3568     0.949     0.676 -70.82
       499   1 5.242397e-09 3.214388e-10  20.7012   0.0666  3.50    361.2180    846.3864     2.466     1.905 -10.62
       500   1 2.200648e-09 3.336386e-10  21.6436   0.1646  7.77   1564.6138    846.9331     1.386     0.754  -0.89
       501   1 1.604944e-08 3.003223e-10  19.4864   0.0203  3.50   1106.2478    843.3417     2.201     1.839  34.70
       502   1  7.58408e-09 2.340963e-10  20.3002   0.0335  3.50   1064.0345    844.8564     1.602     1.518 -19.18
       503   1 2.515053e-09 2.584354e-10  21.4986   0.1116  4.78    659.6616    908.2943     1.321     1.247  21.94
       504   1 2.723171e-09 3.639175e-10  21.4123   0.1451  7.38    898.7652    839.9147     1.368     0.991 -41.96
       505   1 1.882358e-08 2.671247e-10  19.3132   0.0154  3.50    298.7365    836.6601     1.830     1.782  13.57
       506   1  8.44469e-10 1.620458e-10  22.6835   0.2084  5.04    547.3728    840.5500     1.270     0.490  -4.28
       507   1 3.047732e-09 2.123599e-10  21.2901   0.0757  3.50    992.2943    837.7894     1.449     1.391  89.16
       508   1 3.292602e-09  2.37726e-10  21.2062   0.0784  4.77   1520.5193    836.7553     1.323     1.052   3.83
       509   1 5.006551e-09 2.123599e-10  20.7512   0.0461  3.50    819.1140    835.7702     1.573     1.340 -72.60
       510   1  1.60552e-09 2.505851e-10  21.9860   0.1695  5.93    404.9445    832.1259     1.144     0.862 -71.41
       511   1 2.287274e-09 2.304095e-10  21.6017   0.1094  4.17      5.3643    908.7833     1.495     1.193 -14.20
       512   1  8.57612e-08 3.069029e-10  17.6668   0.0039  3.50    654.4219    822.9512     2.105     2.062 -48.89
       513   1 1.127458e-09 2.215686e-10  22.3697   0.2134  7.38    667.7104    826.9911     0.748     0.676  88.97
       514   1 1.070022e-09 2.163545e-10  22.4265   0.2196  7.02    598.6660    826.8643     0.867     0.599 -58.00
       515   1 1.792924e-08 4.359946e-10  19.3661   0.0264  4.36   1177.0139    878.0279     2.401     2.294 -50.89
       516   1 1.070828e-09 2.027334e-10  22.4257   0.2056  7.40    675.1678    824.8500     0.776     0.567 -45.95
       517   1 1.909266e-09 1.998978e-10  21.7978   0.1137  3.75    330.5990    822.1142     1.470     1.047 -78.85
       518   1 2.445436e-09  1.78794e-10  21.5291   0.0794  3.50   1398.4025    819.5419     1.298     1.142  -3.17
       519   1 2.001229e-09 2.539792e-10  21.7468   0.1378  5.32    778.8380    819.5787     1.285     0.984 -85.17
       520   1 3.067619e-09  2.66054e-10  21.2830   0.0942  4.98    702.7261    818.7982     1.374     1.174  18.78
       521   1 5.354662e-09 3.301989e-10  20.6782   0.0670  4.40    878.4671    815.7645     1.955     1.623  71.91
       522   1 5.796046e-10 1.194618e-10  23.0922   0.2238  4.81    599.5142    817.9898     0.790     0.500 -89.25
       523   1 2.191324e-09 1.803833e-10  21.6482   0.0894  3.50    433.7182    817.3963     1.246     1.159  12.24
       524   1 2.315473e-09 3.196579e-10  21.5884   0.1499  8.44   1581.1821    815.3432     1.154     0.684  71.72
       525   1 7.995968e-10 1.548402e-10  22.7428   0.2103  8.29   1213.6698    814.3271     0.573     0.336  44.86
       526   1 1.039642e-09 2.027334e-10  22.4578   0.2118  8.13    651.6002    811.2265     0.749     0.453 -71.74
       527   1 7.893458e-08   3.0316e-10  17.7568   0.0042  3.50   1378.7487    803.0337     2.090     1.996 -73.01
       528   1 1.465543e-09 2.241302e-10  22.0850   0.1661  5.46    844.1793    809.5850     0.999     0.945 -67.95
       529   1 2.319867e-07 3.670413e-10  16.5863   0.0017  3.50    695.7256    798.4870     2.818     2.170 -87.30
       530   1 3.750016e-08 3.069029e-10  18.5649   0.0089  3.50     41.0326    800.7310     2.267     1.871 -33.76
       531   1 2.474493e-09 2.816867e-10  21.5163   0.1236  6.76   1596.6227    801.8430     1.204     0.955 -71.83
       532   1  1.01679e-09 2.202766e-10  22.4819   0.2353  6.96    179.1498    798.8317     0.816     0.672  44.70
       533   1 3.406391e-09 3.087573e-10  21.1693   0.0984  5.24    295.5698    794.4045     1.504     1.262 -67.74
       534   1 1.271203e-09 1.819588e-10  22.2395   0.1554  4.44    408.5213    789.5181     1.143     0.847  45.09
       535   1 1.374616e-09 1.511085e-10  22.1545   0.1194  3.50   1348.9746    786.2906     1.199     0.870  18.29
       536   1 8.038679e-10 1.602748e-10  22.7370   0.2165  8.58    398.6787    785.3033     0.559     0.342  44.01
       537   1 4.067634e-08 4.754519e-10  18.4766   0.0127  3.50   1427.3997    774.0985     4.008     2.551 -87.91
       538   1 1.209914e-09 2.069139e-10  22.2931   0.1857  7.55   1266.8086    780.8370     0.747     0.571  47.60
       539   1  5.39629e-10 1.472824e-10  23.1698   0.2964  7.86    913.6788    779.3135     0.563     0.340  44.60
       540   1  6.14738e-10 1.722902e-10  23.0283   0.3044  7.71   1368.4932    778.5024     0.503     0.497 -45.18
       541   1 9.582317e-10 1.896397e-10  22.5463   0.2149  7.68    477.2248    777.6112     0.755     0.448 -18.49
       542   1 4.718073e-09 2.617276e-10  20.8156   0.0602  3.78    140.0872    768.1033     1.741     1.515 -28.03
       543   1 1.766954e-08 2.755401e-10  19.3819   0.0169  3.70    391.9410    766.6266     1.790     1.716  58.22
       544   1  2.30448e-09 2.745023e-10  21.5936   0.1294  5.19    930.4066    767.4565     1.352     1.173  47.34
       545   1 5.097764e-10 1.241483e-10  23.2316   0.2645  6.94    351.3393    769.7075     0.561     0.341  42.52
       546   1 1.846307e-09 1.755723e-10  21.8342   0.1033  3.89    567.5718    764.3568     1.131     1.052 -56.11
       547   1 1.638434e-09 2.279186e-10  21.9639   0.1511  7.99    369.8164    763.9882     0.941     0.465 -52.71
       548   1 7.333463e-10 1.655311e-10  22.8367   0.2451  5.92   1571.5231    763.3470     0.908     0.476  -0.54
       549   1  3.43729e-09 2.551006e-10  21.1595   0.0806  3.59   1341.5953    757.5969     2.408     1.159 -42.28
       550   1 6.905147e-09 4.005089e-10  20.4021   0.0630  4.41    195.9936    754.8144     2.356     1.958  74.62
       551   1 1.260644e-09 1.566727e-10  22.2485   0.1350  3.92    105.9517    758.3469     1.028     0.893 -28.71
       552   1  6.81247e-10 1.529857e-10  22.9167   0.2439  8.03    164.3241    755.6882     0.564     0.340  44.36
       553   1  1.98679e-09 2.692532e-10  21.7546   0.1472  5.66    433.3690    753.0354     1.217     1.039 -76.13
       554   1  7.82099e-10 1.850694e-10  22.7668   0.2570  7.41   1261.2096    753.4066     0.763     0.449  18.92
       555   1 1.890682e-09  2.41301e-10  21.8085   0.1386  5.40   1080.5370    752.5060     1.131     0.991  22.42
       556   1 1.153947e-09 2.123599e-10  22.3445   0.1999  8.68    351.1921    753.3936     0.749     0.451  18.28
       557   1 3.241633e-09 3.693669e-10  21.2231   0.1237  6.76    445.6659    748.1044     1.670     0.985  63.16
       558   1 4.572058e-06 4.457061e-10  13.3497   0.0001  3.50    404.8557    724.1696     3.167     2.865 -43.89
       559   1 1.020668e-09 2.123599e-10  22.4778   0.2260  7.10    366.2936    747.0145     0.729     0.674  86.22
       560   1 2.272837e-09 2.974574e-10  21.6086   0.1421  7.57    371.9497    741.2941     1.068     0.819  14.83
       561   1 8.160744e-09 2.340963e-10  20.2207   0.0312  3.50   1158.1382    738.0973     1.620     1.521  74.02
       562   1 9.721681e-10 1.866053e-10  22.5306   0.2085  7.50    919.7855    741.6093     0.736     0.456  17.45
       563   1 1.148847e-09 1.393152e-10  22.3493   0.1317  3.50   1272.4288    739.3906     1.012     0.886  30.49
       564   1 8.813754e-09 2.945648e-10  20.1371   0.0363  4.13    649.8225    736.1678     1.707     1.674   7.98
       565   1 2.526924e-09 3.275955e-10  21.4935   0.1408  7.02    753.5777    729.8063     1.407     0.861 -61.94
       566   1 1.397013e-09 2.304095e-10  22.1370   0.1791  5.16   1543.6970    728.8590     1.176     0.969 -71.10
       567   1 1.469869e-08 2.505851e-10  19.5818   0.0185  3.50   1178.2430    727.3900     1.742     1.633 -24.64
       568   1 5.586393e-09 2.215686e-10  20.6322   0.0431  3.50   1395.1029    721.4095     1.655     1.385  -2.21
       569   1 6.302287e-10  1.58484e-10  23.0013   0.2731  5.90    262.5134    722.4999     0.967     0.413 -71.22
       570   1 6.423557e-10 1.620458e-10  22.9806   0.2740  5.90   1110.0265    747.4991     0.797     0.500  -0.50
       571   1 1.798989e-08 2.573285e-10  19.3624   0.0155  3.50    808.3654    715.7905     1.773     1.716  35.61
       572   1 2.008413e-08 2.671247e-10  19.2429   0.0144  3.50    556.3607    742.7979     1.886     1.745 -33.58
       573   1 8.660224e-07 3.969296e-10  15.1562   0.0005  3.50    848.4088    726.6939     2.877     2.475 -59.21
       574   1 1.824661e-08  2.64979e-10  19.3470   0.0158  3.50   1163.8583    708.8325     1.859     1.721  23.22
       575   1 2.084146e-09 3.041001e-10  21.7027   0.1585  5.84    194.5596    709.8948     1.340     1.126 -19.99
       576   1 2.393145e-08 3.503307e-10  19.0526   0.0159  3.53   1339.0865    704.0503     2.437     2.276  89.77
       577   1 2.540974e-09 2.389236e-10  21.4875   0.1021  4.82    538.7080    707.8531     1.284     1.055  60.26
       578   1  3.22891e-08  2.83706e-10  18.7274   0.0095  3.50    952.5154    702.7954     1.939     1.897 -17.67
       579   1 6.959831e-10 1.655311e-10  22.8935   0.2583  7.22    612.2668    705.0111     0.670     0.442 -89.33
       580   1 8.508149e-10 1.672465e-10  22.6754   0.2135  7.47    634.2622    702.9851     0.664     0.440  89.09
       581   1 1.037736e-09 2.041364e-10  22.4598   0.2136  5.20    651.4878    701.4640     0.940     0.909  84.87
       582   1 8.924279e-09 3.559881e-10  20.1236   0.0433  4.14    582.5900    699.0496     2.654     1.543   8.11
       583   1 1.348278e-09 2.150312e-10  22.1756   0.1732  7.37    486.4384    698.7342     0.992     0.480  81.70
       584   1   1.1844e-09 2.202766e-10  22.3163   0.2020  7.38   1201.0220    697.2803     0.743     0.667   8.10
       585   1  1.47498e-09 2.163545e-10  22.0780   0.1593  5.23    277.4422    696.5292     1.111     0.857 -44.74
       586   1 8.852869e-09 2.444658e-10  20.1323   0.0300  4.16   1213.9086    691.6581     2.047     1.578   2.03
       587   1 6.832089e-09 2.033944e-10  20.4136   0.0323  3.76   1213.8470    686.6818     1.620     1.452 -37.19
       588   1 4.322897e-09 2.279186e-10  20.9106   0.0573  3.50    316.1761    692.0191     1.699     1.403 -70.57
       589   1 4.621999e-08 9.299622e-10  18.3379   0.0219  5.15    472.6882    683.0699     4.409     4.127  15.07
       590   1 2.753803e-08 2.926204e-10  18.9002   0.0115  3.55    644.2809    685.5004     2.030     1.881 -85.24
       591   1 1.125483e-09  2.64979e-10  22.3717   0.2557  7.24   1045.8597    688.5778     1.191     0.621  86.04
       592   1 4.231705e-09 1.911389e-10  20.9337   0.0491  3.50    131.0530    687.5593     1.330     1.280  51.73
       593   1 4.837396e-10 1.286643e-10  23.2885   0.2889  6.64    669.0139    689.0000     0.852     0.289   0.00
       594   1  3.04594e-08 4.760518e-10  18.7907   0.0170  4.15    543.6212    681.0928     3.094     2.368 -70.25
       595   1 4.864819e-09 4.089713e-10  20.7823   0.0913  6.69    401.4253    685.2728     1.481     1.404 -38.97
       596   1 8.214305e-10 1.706256e-10  22.7136   0.2256  5.34   1583.6299    686.1552     1.228     0.448  21.80
       597   1 1.744425e-09  2.66054e-10  21.8959   0.1656  5.79   1565.4167    683.9619     1.206     0.962 -61.55
       598   1 1.505848e-09  2.37726e-10  22.0555   0.1714  7.38    389.2822    683.5327     1.115     0.528  69.88
       599   1 1.518594e-09 2.471444e-10  22.0464   0.1767  6.88    202.0383    677.8344     0.932     0.750  88.07
       600   1   1.7502e-09 2.304095e-10  21.8923   0.1430  5.87   1164.3569    675.9028     1.034     0.814  35.71
       601   1 7.368141e-10 1.413491e-10  22.8316   0.2083  4.66    425.5948    673.8431     0.878     0.604  11.65
       602   1 2.783334e-09  2.41301e-10  21.3886   0.0942  4.24    231.5200    673.0724     1.408     1.252   2.79
       603   1 6.278783e-09 3.511445e-10  20.5053   0.0607  4.65   1221.4508    668.7234     1.989     1.614  52.79
       604   1 2.616699e-09 3.169679e-10  21.4556   0.1316  6.63    528.4297    670.0974     1.215     1.060  50.98
       605   1 2.269048e-09 2.096546e-10  21.6104   0.1003  4.32   1180.2679    666.8867     1.243     1.060  22.91
       606   1 1.321571e-09 1.655311e-10  22.1973   0.1360  3.62   1069.7032    666.5624     1.158     0.958 -30.37
       607   1 7.330027e-10 1.672465e-10  22.8372   0.2478  6.86    416.2033    666.6064     0.748     0.449 -18.85
       608   1 3.899925e-09 2.755401e-10  21.0224   0.0767  4.35   1384.8381   1593.3715     1.809     1.213 -22.68
       609   1 4.362745e-10 1.218276e-10  23.4006   0.3033  6.37     82.6753    662.7091     0.554     0.344 -43.03
       610   1 1.698654e-09 2.638997e-10  21.9247   0.1687  7.01    893.4713    959.5074     0.914     0.892  62.45
       611   1 1.118173e-09 1.850694e-10  22.3787   0.1797  5.24    392.8056    639.5758     1.014     0.719 -87.04
       612   1 7.978815e-09 2.471444e-10  20.2452   0.0336  3.81    870.9810    654.6425     1.594     1.469 -81.71
       613   1 3.507784e-09 3.933178e-10  21.1374   0.1218  7.09   1160.3184    650.6182     1.495     1.143   5.08
       614   1 3.625306e-09 2.150312e-10  21.1016   0.0644  3.60    276.8588    641.3821     1.521     1.293  76.80
       615   1  8.41457e-09 2.266628e-10  20.1874   0.0293  3.50    806.1750    630.7094     1.553     1.487  -5.17
       616   1 1.487364e-09  1.78794e-10  22.0690   0.1305  3.90    855.6697    631.1990     1.352     0.864 -23.02
       617   1 1.742883e-09 2.236256e-10  21.8968   0.1393  6.34   1154.0640    646.3002     1.543     0.800  46.97
       618   1 1.188221e-09 1.722902e-10  22.3128   0.1575  4.50    942.0103    629.1249     1.052     0.737 -13.99
       619   1 1.831806e-09 2.692532e-10  21.8428   0.1596  6.94   1287.1416    626.9363     1.473     0.567 -47.50
       620   1 1.428863e-08 2.573285e-10  19.6125   0.0196  3.65   1581.5267    623.2813     1.686     1.660 -88.52
       621   1  7.54901e-10 1.722902e-10  22.8053   0.2479  8.01   1123.4698    627.0128     0.799     0.312 -58.01
       622   1 5.428381e-10 1.548402e-10  23.1633   0.3098  8.19    133.6832    627.6499     0.577     0.333 -46.43
       623   1 5.177419e-09 2.539792e-10  20.7147   0.0533  3.95    653.0937    645.8065     1.531     1.501 -66.26
       624   1 1.846324e-09 2.806716e-10  21.8342   0.1651  6.53    343.6367    624.6700     1.140     0.918  -9.82
       625   1  8.23311e-09 4.047622e-10  20.2111   0.0534  4.70   1151.6594    618.1327     2.405     1.712 -12.04
       626   1 1.719617e-09 1.998978e-10  21.9114   0.1262  4.17     95.0748    619.3148     1.294     1.000 -34.40
       627   1 1.767437e-09    2.254e-10  21.8816   0.1385  5.34   1235.2788    616.0558     1.109     0.904  83.00
       628   1 1.653276e-09 2.517216e-10  21.9541   0.1654  7.86    530.3815    616.7301     0.977     0.583  19.58
       629   1 1.161452e-09 1.351556e-10  22.3375   0.1264  3.50    119.8034    616.9603     1.214     0.709  20.36
       630   1 3.203156e-09 3.486975e-10  21.2361   0.1182  6.08   1368.3660    613.5634     1.454     1.259  58.92
       631   1 5.975379e-10 1.722902e-10  23.0591   0.3131  7.94    290.0103    615.5035     0.784     0.318  32.57
       632   1 2.029218e-09 2.189771e-10  21.7317   0.1172  4.09    995.4975    611.3829     1.398     1.172  40.31
       633   1 3.333808e-09 3.087573e-10  21.1926   0.1006  5.55    198.7797   1477.0847     1.359     1.270 -17.10
       634   1 6.570628e-09 4.681927e-10  20.4560   0.0774  8.03   1336.1680    608.2993     1.790     1.063 -77.98
       635   1 1.819029e-09  2.37726e-10  21.8504   0.1419  4.77    879.2435   1526.8158     1.290     1.074  63.56
       636   1 1.211462e-09 1.819588e-10  22.2917   0.1631  4.96   1011.0633    607.3793     1.038     0.737  70.90
       637   1 1.381535e-08 3.454078e-10  19.6491   0.0272  4.12    863.5564   1546.1011     2.066     1.857  54.06
       638   1 1.180906e-09 2.110116e-10  22.3195   0.1941  6.16    513.0872    604.7695     1.033     0.650 -30.59
       639   1 1.717478e-09 2.459869e-10  21.9128   0.1555  6.16    764.2803    602.3688     1.159     0.779  53.36
       640   1 1.759657e-09 2.584354e-10  21.8864   0.1595  6.09   1426.6421    601.0501     1.136     0.860   5.82
       641   1  1.26644e-09 1.771905e-10  22.2435   0.1519  4.43    668.2955    599.8295     1.177     0.755 -27.97
       642   1 1.375043e-07 3.232098e-10  17.1542   0.0026  3.50    536.8519    639.7866     2.207     2.190  78.06
       643   1 7.763826e-10 1.620458e-10  22.7748   0.2267  8.76    358.3195    598.3585     0.582     0.330 -46.57
       644   1 1.264826e-09 2.291674e-10  22.2449   0.1968  6.59   1125.2162    596.9562     1.013     0.651 -61.27
       645   1 5.456305e-10  1.33027e-10  23.1578   0.2648  4.78    963.6873    611.5593     0.967     0.481  -8.31
       646   1 6.863883e-10  1.58484e-10  22.9086   0.2508  7.41   1554.5042   1592.5144     0.501     0.499 -42.88
       647   1 1.714645e-08 2.638997e-10  19.4146   0.0167  3.53   1108.8652   1584.9681     1.792     1.727 -19.59
       648   1  9.42058e-10 1.835207e-10  22.5648   0.2116  6.39    738.0062   1556.9956     0.875     0.534 -44.26
       649   1 3.417696e-08 3.284656e-10  18.6657   0.0104  3.88    654.6991   1542.6731     2.042     1.946  82.17
       650   1 9.129638e-10 1.835207e-10  22.5989   0.2183  7.45   1082.8075   1586.5990     0.725     0.456  18.66
       651   1  7.49582e-07  3.64701e-10  15.3130   0.0005  3.50    487.6773   1558.0476     2.496     2.437 -48.97
       652   1 3.825251e-09 2.964964e-10  21.0434   0.0842  4.77   1414.3698   1581.1473     1.641     1.320  24.74
       653   1  3.43947e-09 2.916434e-10  21.1588   0.0921  5.50    567.0350   1591.4966     1.306     1.203 -73.78
       654   1 3.655758e-09 2.505851e-10  21.0926   0.0744  4.60   1069.6111   1585.9868     1.332     1.251 -36.87
       655   1 1.608278e-09 2.328739e-10  21.9841   0.1572  7.38    774.4290   1584.8414     1.248     0.450  22.65
       656   1 7.785147e-10 1.911389e-10  22.7718   0.2666  7.70   1151.8188   1534.3972     0.757     0.446 -19.30
       657   1 3.587015e-09 3.361953e-10  21.1132   0.1018  6.65    263.6792   1538.7521     1.371     1.042 -69.36
       658   1  2.46843e-09 2.041364e-10  21.5189   0.0898  3.97   1491.1422   1575.1366     1.282     1.167  72.10
       659   1 7.547675e-07  3.61557e-10  15.3055   0.0005  3.50    304.2222   1563.7131     2.525     2.401 -51.56
       660   1 3.071833e-09 2.692532e-10  21.2815   0.0952  5.00    945.6204    609.5735     1.345     1.194   8.73
       661   1 1.479312e-08 2.974574e-10  19.5749   0.0218  4.07    861.4482   1561.2191     1.750     1.698  14.66
       662   1 6.863122e-10 1.722902e-10  22.9087   0.2726  7.88   1472.4890   1582.5223     0.509     0.490 -44.45
       663   1 2.468905e-09 3.142549e-10  21.5187   0.1382  6.86    641.5916   1586.9977     1.338     0.868  64.04
       664   1 4.524273e-10 1.241483e-10  23.3611   0.2980  6.95   1200.6770   1591.6576     0.577     0.334 -45.84
       665   1 7.497076e-10 1.866053e-10  22.8128   0.2703  7.13   1371.4587   1553.9601     0.779     0.498  87.77
       666   1 1.374377e-09 2.228531e-10  22.1547   0.1761  5.97   1233.3744   1553.9375     1.038     0.750 -16.55
       667   1 5.340869e-09 2.974574e-10  20.6810   0.0605  4.10   1429.0597   1535.6830     2.302     1.293 -44.13
       668   1 2.816402e-09 3.223255e-10  21.3758   0.1243  6.35    919.8490   1535.5614     1.293     1.129 -25.74
       669   1 9.186372e-10  1.33027e-10  22.5921   0.1573  3.60   1338.3492   1571.5380     0.913     0.817  69.77
       670   1 7.994759e-10 1.722902e-10  22.7430   0.2340  8.35   1279.5011   1570.5242     0.501     0.499  37.30
       671   1 2.026357e-08  3.61557e-10  19.2332   0.0194  4.02    784.7167   1565.6715     2.401     1.866 -84.92
       672   1 3.877915e-09 3.918638e-10  21.0285   0.1097  6.65    975.4609   1534.0901     1.640     1.168  81.97
       673   1  9.79513e-09 4.564628e-10  20.0225   0.0506  5.09    415.8318   1532.6458     2.172     2.056  58.63
       674   1 4.913796e-10 1.308638e-10  23.2715   0.2892  7.31   1342.3438   1564.3158     0.574     0.335 -43.75
       675   1 4.608611e-08 3.196579e-10  18.3411   0.0075  3.50    135.1154   1542.0682     2.416     1.924 -79.07
       676   1 5.457332e-10 1.511085e-10  23.1575   0.3007  8.07    105.3038   1558.6699     0.563     0.340  46.37
       677   1 1.299527e-09 2.266628e-10  22.2155   0.1894  6.42    330.3092   1541.3248     0.938     0.747 -47.35
       678   1 7.840671e-09 5.541791e-10  20.2641   0.0768  6.96    386.1742   1562.2960     2.555     1.387 -83.49
       679   1 1.641985e-09  2.83706e-10  21.9616   0.1876  7.19   1513.5920   1551.6183     0.996     0.881  41.61
       680   1 3.507645e-07 7.270503e-10  16.1375   0.0023  3.50    682.2101   1552.5873     5.333     4.524 -24.13
       681   1 2.721655e-09 3.420865e-10  21.4129   0.1365  7.37    352.8098   1551.3849     1.300     0.917 -39.45
       682   1 2.805659e-08 2.847103e-10  18.8799   0.0110  3.50     22.0433   1566.6494     2.039     1.805 -87.70
       683   1 5.900353e-09 2.703112e-10  20.5728   0.0498  4.32   1221.9541   1550.7795     1.512     1.438  41.60
       684   1 8.547132e-10 1.911389e-10  22.6704   0.2429  7.74    948.5918   1552.2058     0.749     0.449 -70.43
       685   1 2.200853e-08 2.628159e-10  19.1435   0.0130  3.50     92.7172   1570.5397     1.812     1.765  36.19
       686   1 4.673742e-08 2.916434e-10  18.3258   0.0068  3.50    224.7612   1435.2928     2.006     1.925   4.72
       687   1 2.954201e-09 3.214388e-10  21.3239   0.1182  5.77   1566.2384   1562.3865     1.352     1.281  38.58
       688   1 5.479159e-09 4.730445e-10  20.6532   0.0938  7.36    505.6035   1539.0999     1.726     1.327  45.97
       689   1 1.200099e-09 2.215686e-10  22.3020   0.2005  7.01   1061.8414   1536.4542     0.916     0.607 -79.76
       690   1 3.911666e-09 3.133453e-10  21.0191   0.0870  4.86    733.4501   1528.7415     1.682     1.354  75.52
       691   1 7.294263e-09 2.955321e-10  20.3425   0.0440  3.91   1547.3589   1515.2483     1.942     1.653  80.46
       692   1 1.097351e-09 1.911389e-10  22.3991   0.1892  7.66   1586.6016   1508.8156     0.779     0.443  71.01
       693   1 9.162348e-10 1.612896e-10  22.5950   0.1912  7.36    423.3004    963.8932     0.945     0.676  21.79
       694   1 4.019291e-10 1.241483e-10  23.4896   0.3354  6.53   1215.6736   1525.2931     0.556     0.343  43.11
       695   1 2.401767e-09 1.881286e-10  21.5487   0.0851  3.60     14.3426   1522.9517     1.328     1.150  15.92
       696   1 6.638133e-10 1.602748e-10  22.9449   0.2622  7.48    591.0405   1517.0000     0.858     0.289   0.00
       697   1  1.25268e-08 3.918638e-10  19.7554   0.0340  4.46    654.3016    950.5642     2.346     1.855 -86.84
       698   1 1.912438e-09 2.984154e-10  21.7960   0.1695  6.22   1023.8948   1477.8254     1.700     0.753  50.47
       699   1 3.760675e-09 2.055298e-10  21.0618   0.0594  3.61    844.4834   1498.4211     1.341     1.314 -71.89
       700   1 1.934811e-09 2.806716e-10  21.7834   0.1575  7.55    550.3937   1528.8771     1.046     0.740 -16.79
       701   1 2.604772e-09 2.867083e-10  21.4606   0.1195  6.37   1311.9513   1504.3622     1.175     0.956  13.14
       702   1 5.258548e-09  3.32782e-10  20.6978   0.0687  4.80   1100.7826   1519.9258     1.871     1.448 -89.22
       703   1 9.185506e-10 1.655311e-10  22.5922   0.1957  7.80    926.9805   1531.4901     0.757     0.327  33.64
       704   1 3.154413e-09 3.969296e-10  21.2527   0.1367  8.03   1591.6241   1505.5227     1.415     0.967  80.05
       705   1 1.007181e-09 1.264265e-10  22.4922   0.1363  3.50   1232.9312   1498.3593     0.987     0.747 -71.74
       706   1 6.373108e-10 1.548402e-10  22.9891   0.2639  8.47   1209.9829   1509.6549     0.925     0.208  28.32
       707   1 9.304692e-09 4.412007e-10  20.0782   0.0515  4.95    575.3847   1482.4093     2.570     1.714 -43.04
       708   1 2.922247e-09 3.310622e-10  21.3357   0.1230  5.47   1096.6411   1504.0876     1.512     1.332  -5.89
       709   1 1.337013e-09 1.926263e-10  22.1847   0.1565  4.73   1413.3647   1502.4349     1.163     0.794  52.97
       710   1 1.148522e-08 2.867083e-10  19.8497   0.0271  3.97    723.4103   1504.1039     1.748     1.648 -39.99
       711   1 1.475564e-09 2.328739e-10  22.0776   0.1714  4.92   1504.6222    953.2723     1.259     0.980  22.26
       712   1 5.989607e-09 2.776041e-10  20.5565   0.0503  4.39   1271.3236   1438.7754     1.516     1.453  11.02
       713   1 1.359278e-09  2.66054e-10  22.1667   0.2126  5.57    872.2709   1494.7948     1.363     0.923  60.18
       714   1 5.837871e-10 1.351556e-10  23.0844   0.2514  7.45   1303.3344    951.3224     0.573     0.336 -44.46
       715   1 3.151705e-09 2.150312e-10  21.2536   0.0741  3.87   1486.9849    981.9568     1.414     1.227   4.70
       716   1 1.325895e-09 1.511085e-10  22.1937   0.1238  3.50   1029.4174    955.1005     1.303     0.796  49.33
       717   1 1.457261e-09 2.365223e-10  22.0912   0.1763  6.98    680.4360   1501.1938     1.102     0.575  66.03
       718   1 6.957288e-10 1.602748e-10  22.8939   0.2502  5.50    430.4139   1471.2738     0.963     0.479 -82.22
       719   1 7.920821e-10 1.372511e-10  22.7531   0.1882  4.30   1066.0829    978.8563     0.814     0.681  43.64
       720   1 4.373621e-09 2.964964e-10  20.8979   0.0736  4.87     78.2057   1488.4012     1.478     1.398 -77.58
       721   1 3.496727e-09 3.022171e-10  21.1408   0.0939  4.88     61.8423    952.1288     1.514     1.408  88.73
       722   1 1.341145e-09 1.689445e-10  22.1813   0.1368  4.02   1280.6273    976.6459     1.047     0.935 -48.69
       723   1 5.455939e-09  2.76574e-10  20.6578   0.0551  4.63    416.5508    965.1973     1.452     1.352   6.73
       724   1 2.843806e-09 3.059714e-10  21.3652   0.1168  6.05   1128.6254   1467.9746     1.327     1.078  73.52
       725   1  1.13709e-09 2.027334e-10  22.3605   0.1936  7.04   1382.3292   1462.3727     0.898     0.528 -44.43
       726   1 3.624285e-09 4.075731e-10  21.1019   0.1221  6.92   1570.2479   1475.3893     1.402     1.359 -80.65
       727   1  1.77094e-09  2.83706e-10  21.8795   0.1740  6.52    954.3754    984.5556     1.113     0.929  43.00
       728   1 2.184614e-08 2.638997e-10  19.1516   0.0131  3.50   1386.5428   1415.4117     1.850     1.757  47.28
       729   1 1.809722e-09 2.734605e-10  21.8560   0.1641  6.86   1158.5178   1458.6400     1.526     0.574  23.84
       730   1 8.149491e-10  1.78794e-10  22.7222   0.2383  5.69   1145.1510   1455.8851     0.839     0.656  43.95
       731   1 4.124468e-10 8.276555e-11  23.4616   0.2179  4.40   1213.6925    964.6341     0.579     0.331 -47.42
       732   1 2.217408e-07 9.373665e-10  16.6354   0.0046  4.40   1135.3489   1359.5164     9.041     5.734  89.84
       733   1 5.168879e-10 1.351556e-10  23.2165   0.2840  6.18     72.0271    976.5153     0.775     0.321  32.88
       734   1  5.51648e-10 9.851071e-11  23.1458   0.1939  3.81    768.3809   1483.7642     0.752     0.449 -72.15
       735   1 9.355572e-09 5.185247e-10  20.0723   0.0602  5.37    998.2386   1474.6744     3.187     1.623 -14.63
       736   1 3.841477e-10 1.013667e-10  23.5388   0.2866  5.44    589.6511   1465.7106     0.564     0.339 -41.96
       737   1 9.085607e-10 1.706256e-10  22.6041   0.2039  5.28    387.4024   1438.0725     0.891     0.700 -23.71
       738   1 4.485128e-10 8.276555e-11  23.3706   0.2004  3.85    806.4721   1469.5356     0.506     0.492 -44.02
       739   1 9.624311e-10 1.835207e-10  22.5416   0.2071  7.82    448.3000   1465.9618     1.027     0.298 -39.83
       740   1 3.186498e-09 3.519564e-10  21.2417   0.1200  8.60   1164.4094   1452.2311     1.519     0.613 -46.09
       741   1 1.342467e-09 2.110116e-10  22.1802   0.1707  6.75    166.5028   1454.9208     0.805     0.696   0.12
       742   1 1.028855e-09 2.123599e-10  22.4691   0.2242  6.74   1035.8330   1029.5009     0.876     0.658 -53.66
       743   1 1.166034e-09 2.041364e-10  22.3332   0.1901  7.36    665.1567   1056.1676     0.777     0.567  41.56
       744   1 7.939397e-10 1.672465e-10  22.7505   0.2288  6.64    118.3887   1465.2323     0.772     0.448  72.15
       745   1 1.460788e-09 2.628159e-10  22.0885   0.1954  6.80    922.5140   1454.5990     0.932     0.923 -19.83
       746   1 2.532616e-09 3.012711e-10  21.4911   0.1292  6.35    611.7505   1457.9702     1.205     1.042  69.45
       747   1 2.008994e-09 3.196579e-10  21.7426   0.1728  5.78   1225.0952   1451.9117     1.541     1.106 -85.71
       748   1 1.802196e-06 3.918638e-10  14.3605   0.0002  3.50   1090.5057   1434.3535     2.766     2.566 -44.11
       749   1 1.444262e-08 3.503307e-10  19.6009   0.0263  4.01    798.0234    980.7159     2.203     1.946 -81.08
       750   1 2.745756e-09 1.926263e-10  21.4033   0.0762  3.50    391.6828   1453.5375     1.314     1.258  71.96
       751   1 6.752751e-09 3.437511e-10  20.4263   0.0553  4.45    341.1369   1432.3865     2.181     1.527  18.62
       752   1 1.573357e-09 2.671247e-10  22.0079   0.1844  7.98   1114.1803   1458.7025     1.089     0.567  57.39
       753   1 9.057577e-10 1.866053e-10  22.6075   0.2237  7.13   1280.0002   1432.0286     0.622     0.611 -89.97
       754   1 1.719042e-09 2.189771e-10  21.9118   0.1383  4.96    464.2708   1028.0948     1.068     1.016 -12.86
       755   1 6.514506e-10  1.58484e-10  22.9653   0.2642  7.44    181.4885   1437.4747     0.505     0.494  43.75
       756   1   1.0226e-06 3.639175e-10  14.9757   0.0004  3.50    114.4795   1393.4257     2.512     2.408 -37.89
       757   1 4.913832e-10 1.351556e-10  23.2715   0.2987  6.77    817.5321   1441.4956     0.512     0.487 -46.18
       758   1   9.3732e-10 1.941024e-10  22.5703   0.2249  6.47   1514.3335   1444.8252     0.745     0.652  25.30
       759   1 3.410637e-08 2.786304e-10  18.6679   0.0089  3.50    619.2233   1439.7817     1.894     1.869 -75.46
       760   1 2.521986e-09 3.087573e-10  21.4956   0.1330  7.13    181.1609   1028.5291     1.086     0.961   0.03
       761   1 1.044746e-09 2.215686e-10  22.4525   0.2303  6.75   1372.0281   1437.2158     0.987     0.609 -64.30
       762   1 4.314279e-09  2.66054e-10  20.9127   0.0670  5.45      1.8658   1412.5940     2.171     0.893  88.32
       763   1  4.43446e-09 3.889394e-10  20.8829   0.0953  5.60    646.7098   1438.6938     2.159     1.243 -13.25
       764   1 2.493454e-07  3.34493e-10  16.5080   0.0015  3.50   1380.0143   1025.6788     2.323     2.204 -78.83
       765   1 2.120546e-09 2.886924e-10  21.6839   0.1478  7.71    106.5811   1418.1027     1.055     0.734 -18.57
       766   1 1.805494e-09  2.71365e-10  21.8585   0.1632  7.72    128.9368   1024.7767     0.934     0.747 -86.20
       767   1 3.591974e-09 2.266628e-10  21.1117   0.0685  4.20   1347.3878   1436.1893     1.372     1.203 -24.48
       768   1 1.188236e-09 1.777826e-10  22.3127   0.1625  6.11   1266.8491   1026.4175     1.278     0.702  -5.56
       769   1 9.979001e-09 3.240917e-10  20.0023   0.0353  4.11    349.9719   1411.2299     2.098     1.674  47.52
       770   1 3.400855e-08  2.90663e-10  18.6710   0.0093  3.50    713.2318   1390.3146     2.028     1.899  59.21
       771   1 2.053395e-09 3.196579e-10  21.7188   0.1691  6.53   1345.1870   1402.9994     1.345     0.985 -37.48
       772   1 3.548799e-09 3.050372e-10  21.1248   0.0933  5.72   1363.2292   1403.9792     1.341     1.199  20.25
       773   1 2.397444e-07 3.583853e-10  16.5506   0.0016  3.50   1126.3845   1419.2346     2.525     2.334 -68.32
       774   1 4.200756e-09 3.041001e-10  20.9417   0.0786  4.24   1268.6808   1020.8611     2.369     1.193  53.23
       775   1 1.511641e-09 2.241302e-10  22.0514   0.1610  6.33   1597.3832   1423.8257     0.999     0.864 -22.04
       776   1 8.063295e-10 1.548402e-10  22.7337   0.2085  8.27    997.6867   1437.3593     0.579     0.331  46.91
       777   1 4.374702e-10 1.218276e-10  23.3976   0.3024  5.63     11.5361   1378.9927     0.770     0.322 -57.00
       778   1 7.557641e-09 2.692532e-10  20.3040   0.0387  4.01    330.1031   1406.4037     1.706     1.458  -0.38
       779   1 1.140108e-07 3.142549e-10  17.3576   0.0030  3.50    525.4432   1038.6776     2.193     2.069 -55.18
       780   1 1.594021e-09 2.459869e-10  21.9938   0.1676  6.42    113.1893   1101.5394     1.327     0.609  52.75
       781   1 2.973084e-09 3.361953e-10  21.3170   0.1228  5.73    367.7916   1411.4252     2.139     0.904 -67.54
       782   1 7.330807e-10 1.637977e-10  22.8371   0.2427  7.76   1046.0000   1427.9565     0.856     0.289  90.00
       783   1 5.312221e-10 1.393152e-10  23.1868   0.2848  7.45    854.6852   1101.6312     0.584     0.328 -47.11
       784   1 1.166872e-07 3.267231e-10  17.3324   0.0030  3.50   1019.0532   1372.5160     2.243     2.161 -29.66
       785   1 2.935688e-09 2.136997e-10  21.3307   0.0791  3.50    237.6106   1052.1259     1.710     1.259  40.23
       786   1  2.02199e-09 2.266628e-10  21.7356   0.1217  4.25    429.1500   1420.8604     1.460     1.098  -1.43
       787   1 3.149528e-08 2.724148e-10  18.7544   0.0094  3.50    308.3625   1408.2240     1.857     1.813  -4.81
       788   1 1.322927e-08 2.908613e-10  19.6962   0.0239  4.09   1031.5884   1400.6329     2.084     1.849  39.17
       789   1 4.304364e-09 2.279186e-10  20.9152   0.0575  4.05   1136.3815   1094.5708     1.375     1.319 -31.46
       790   1 1.702647e-09 1.655311e-10  21.9222   0.1056  3.50     87.9010   1449.4950     1.319     1.041  66.11
       791   1 2.454634e-08  2.80233e-10  19.0250   0.0124  3.89   1038.8495   1392.2743     1.884     1.856 -14.33
       792   1 5.450345e-09 2.945648e-10  20.6589   0.0587  4.84    806.8542   1388.8909     1.469     1.402  39.31
       793   1 4.001629e-07  4.41422e-10  15.9944   0.0012  3.50    660.0428   1320.0669     2.280     2.210  34.42
       794   1 8.539334e-10 1.722902e-10  22.6714   0.2191  7.25   1069.4299   1369.1909     0.735     0.446  68.43
       795   1 8.171333e-10 1.881286e-10  22.7193   0.2500  7.47    794.4075   1308.7325     0.745     0.459 -72.47
       796   1 7.623023e-10 1.722902e-10  22.7947   0.2455  8.32    555.4922   1369.5154     0.501     0.499  42.11
       797   1 6.494278e-10 1.655311e-10  22.9687   0.2768  6.19     61.8614   1402.2117     1.187     0.346  10.99
       798   1 1.856952e-09 2.671247e-10  21.8280   0.1562  7.54     92.1996   1401.3485     1.205     0.577 -40.03
       799   1 6.586391e-10  1.58484e-10  22.9534   0.2613  7.33   1021.4609   1388.9657     0.791     0.315  57.82
       800   1  2.30032e-09 3.142549e-10  21.5955   0.1484  8.14   1209.8679   1382.9487     1.486     0.561 -58.38
       801   1 5.490876e-06 1.097375e-09  13.1509   0.0002  3.50   1159.8285   1366.2502     3.893     3.524 -68.40
       802   1 6.850007e-10 1.511085e-10  22.9108   0.2396  7.11   1307.5037   1307.0221     0.795     0.314 -57.81
       803   1 5.830572e-09 4.482603e-10  20.5857   0.0835  6.38   1534.4888   1392.4174     1.964     1.401  87.34
       804   1 4.868697e-09 4.158917e-10  20.7815   0.0928  7.41   1102.8444   1389.0431     1.618     1.096  56.70
       805   1 9.727112e-08 3.106006e-10  17.5300   0.0035  3.50   1428.5220   1388.6992     2.114     2.059  77.61
       806   1 8.046431e-10 1.722902e-10  22.7360   0.2325  8.17    508.4846   1306.4819     0.505     0.494  44.77
       807   1 1.816341e-09 2.471444e-10  21.8520   0.1478  5.62   1243.8656   1360.6213     1.176     0.930 -14.18
       808   1 1.091891e-09 2.096546e-10  22.4046   0.2085  6.27   1050.2941   1382.9727     1.034     0.626  37.23
       809   1 8.513698e-10 1.602748e-10  22.6747   0.2044  8.61    396.6588   1381.0208     0.918     0.210 -61.58
       810   1 4.974191e-09 3.954889e-10  20.7582   0.0863  5.18   1274.0189   1385.7549     1.918     1.689  36.65
       811   1  2.83718e-09 2.945648e-10  21.3678   0.1128  6.24   1585.3058   1388.3579     1.190     1.061 -69.94
       812   1 3.808821e-09 3.395742e-10  21.0480   0.0968  6.45   1215.7869   1370.9067     1.418     1.088  47.54
       813   1 6.167789e-09  2.41301e-10  20.5247   0.0425  3.99    386.7908   1330.4268     1.547     1.338  45.28
       814   1 1.328504e-09 2.082887e-10  22.1916   0.1703  9.55    991.5184   1342.5160     0.503     0.497  45.42
       815   1 1.670548e-08 5.490046e-10  19.4429   0.0357  5.36    598.9560   1229.7646     2.616     2.222  -0.84
       816   1  2.40872e-09 3.716778e-10  21.5455   0.1676  7.30    527.6470   1362.1768     1.691     0.848  76.11
       817   1 3.622399e-09 4.247198e-10  21.1025   0.1273  6.72    844.5991   1306.4291     1.868     1.184 -56.19
       818   1 9.762011e-10 1.722902e-10  22.5262   0.1917  8.38    787.4755   1257.4821     0.503     0.496 -46.11
       819   1 4.923645e-09 3.815303e-10  20.7693   0.0842  5.49    857.2390   1238.2332     1.943     1.397 -58.60
       820   1  1.01629e-09  1.78794e-10  22.4825   0.1911  5.58   1134.6917   1315.0677     0.970     0.615 -25.69
       821   1 5.120917e-09 3.997956e-10  20.7266   0.0848  7.11   1111.6205   1362.5903     1.527     1.155 -27.10
       822   1 1.304358e-09 2.365223e-10  22.2115   0.1969  6.80    706.7793   1370.4663     0.938     0.730  86.57
       823   1 2.358102e-09 2.896794e-10  21.5686   0.1334  7.17    475.2800   1353.1499     1.109     0.827 -47.26
       824   1 7.276003e-10 1.722902e-10  22.8453   0.2572  8.13   1070.4906   1351.5085     0.511     0.488 -45.02
       825   1  6.88862e-10 1.068499e-10  22.9047   0.1685  3.87    967.1849   1352.6631     0.976     0.382  85.56
       826   1 2.157598e-09 2.984154e-10  21.6651   0.1502  7.84   1187.6772   1332.0023     1.201     0.676 -15.97
       827   1 9.672635e-09 4.340262e-10  20.0361   0.0487  4.40    152.1119   1352.5399     2.695     2.025  65.63
       828   1 2.397658e-09 2.867083e-10  21.5505   0.1299  5.36    149.6165   1368.7002     1.474     1.075  78.99
       829   1 4.148052e-08 4.971678e-10  18.4554   0.0130  4.21   1036.1460   1307.5225     3.153     2.446 -41.62
       830   1 1.479582e-09 2.055298e-10  22.0747   0.1509  8.05   1599.1521   1346.4091     1.255     0.449 -67.68
       831   1 4.754827e-10 1.041444e-10  23.3072   0.2379  3.50    362.5882   1365.3062     1.032     0.474  81.64
       832   1 1.486967e-09 2.279186e-10  22.0692   0.1665  8.48    974.8170   1308.2791     1.208     0.328  79.86
       833   1 6.620289e-10 1.706256e-10  22.9478   0.2799  7.77      8.4620   1384.5250     0.509     0.489 -46.17
       834   1 2.421194e-09 3.196579e-10  21.5399   0.1434  7.53   1480.0477   1339.3470     1.282     0.782 -31.08
       835   1 3.026799e-09 3.267231e-10  21.2975   0.1172  6.16    390.8934   1362.6559     1.547     1.012  -4.12
       836   1 2.189736e-09 3.370432e-10  21.6490   0.1672  8.28   1383.4349   1385.3236     1.493     0.636  -1.89
       837   1 4.635729e-09  2.66054e-10  20.8347   0.0623  4.06    605.0570   1346.0865     1.679     1.426 -65.79
       838   1 1.936843e-09 2.027334e-10  21.7823   0.1137  4.17    194.4137   1347.1512     1.331     1.001  63.84
       839   1 7.702375e-10 1.850694e-10  22.7834   0.2609  8.94   1084.4751   1236.5016     0.501     0.498 -49.89
       840   1 4.685858e-08 2.992288e-10  18.3230   0.0069  3.50    655.8773   1329.8337     2.201     1.893  15.15
       841   1 1.722819e-08 3.831545e-10  19.4094   0.0242  5.45   1139.7054   1330.3749     2.949     2.183 -89.76
       842   1 3.908383e-09  2.85711e-10  21.0200   0.0794  4.67    319.3640   1379.0121     1.797     1.138 -29.88
       843   1 3.577842e-09 3.918638e-10  21.1159   0.1189  5.46    633.8728   1325.4204     2.296     1.238  12.07
       844   1 1.173231e-08 2.459869e-10  19.8265   0.0228  3.50    107.4706   1332.7816     1.723     1.577 -72.12
       845   1 1.632753e-09 2.755401e-10  21.9677   0.1833  6.10   1234.2632   1187.0813     1.196     0.950 -77.78
       846   1 1.064857e-08 2.734605e-10  19.9318   0.0279  3.83    892.9990   1304.7091     1.735     1.608 -54.95
       847   1 8.775323e-10 1.637977e-10  22.6418   0.2027  8.70    494.6713   1327.3220     0.570     0.337  44.68
       848   1 4.079696e-08 3.377737e-10  18.4734   0.0090  3.50    669.7235   1307.5466     2.470     1.996 -65.11
       849   1 1.431377e-09 2.279186e-10  22.1106   0.1729  5.58    627.1389   1105.0500     1.118     0.848 -15.60
       850   1 3.551265e-09  3.64701e-10  21.1240   0.1115  6.19    939.1964   1302.7965     1.936     1.002  76.11
       851   1 2.374807e-06 4.179455e-10  14.0609   0.0002  3.50    725.0248   1298.3757     3.100     2.573 -20.95
       852   1 7.999156e-10 1.548402e-10  22.7424   0.2102  8.33   1559.6527   1328.6726     0.581     0.331 -44.19
       853   1 8.881896e-10 1.529857e-10  22.6287   0.1871  4.86    678.1016   1387.1384     0.835     0.663 -46.05
       854   1 1.407878e-09 2.340963e-10  22.1286   0.1806  7.28   1356.7756   1316.9772     0.970     0.608  26.45
       855   1 4.685747e-10 1.241483e-10  23.3231   0.2877  6.66   1478.6660   1324.6803     0.572     0.336 -44.33
       856   1 5.781678e-10 1.492077e-10  23.0949   0.2803  7.84    959.3392   1323.3163     0.572     0.336 -43.94
       857   1 4.389373e-09 4.193091e-10  20.8940   0.1037  6.98    999.4428   1313.3864     1.794     1.113 -66.36
       858   1 8.204774e-09 2.266628e-10  20.2148   0.0300  3.50    264.1590   1319.2791     1.569     1.500 -75.87
       859   1 4.780683e-10 1.241483e-10  23.3013   0.2820  6.56    755.6858   1324.6882     0.559     0.342 -44.87
       860   1 3.305809e-09 3.503307e-10  21.2018   0.1151  6.63    574.2468   1306.6790     1.332     1.173 -70.15
       861   1 9.534279e-08 3.527664e-10  17.5518   0.0040  3.50    762.2137   1291.3678     2.635     2.135 -28.08
       862   1 1.494072e-09 2.916434e-10  22.0641   0.2120  8.16    297.5924   1309.4417     1.276     0.567  39.38
       863   1 5.003029e-10 1.351556e-10  23.2519   0.2934  6.75    862.4904   1284.5381     0.509     0.489  43.04
       864   1 5.689512e-10 1.351556e-10  23.1123   0.2580  5.89    412.4993   1197.5155     0.501     0.499 -40.49
       865   1  2.13293e-09 1.998978e-10  21.6776   0.1018  3.86    343.6636   1277.9193     1.330     1.109  -3.19
       866   1 3.854144e-07 3.478779e-10  16.0352   0.0010  3.50    778.1877   1094.8972     2.368     2.321 -70.82
       867   1 7.765544e-09 2.494435e-10  20.2746   0.0349  3.69    549.4711   1181.1373     1.632     1.563 -65.02
       868   1 2.797639e-09 3.012711e-10  21.3830   0.1169  6.29    613.8320   1243.9584     1.173     1.083  43.22
       869   1 1.898785e-07 5.648913e-10  16.8038   0.0032  3.50    609.9828   1272.7894     4.972     2.930 -57.70
       870   1 3.369071e-09 2.459869e-10  21.1812   0.0793  4.64   1217.3827   1204.0166     1.340     1.161  56.58
       871   1 3.725654e-09 2.826982e-10  21.0720   0.0824  4.72    546.0939   1291.5206     1.517     1.335 -12.91
       872   1 1.062445e-09 1.926263e-10  22.4342   0.1969  5.80     42.4912   1303.1591     0.889     0.675 -37.51
       873   1 3.890011e-09 2.027334e-10  21.0251   0.0566  3.50     54.2262   1299.1852     1.446     1.302 -54.15
       874   1  5.54928e-08 3.003223e-10  18.1394   0.0059  3.50   1331.3948   1278.0787     2.044     1.976  78.61
       875   1 1.234288e-08 2.424809e-10  19.7715   0.0213  3.50    412.7218   1292.8922     1.664     1.606 -53.95
       876   1 4.864354e-09 2.241302e-10  20.7824   0.0500  3.62    176.3263   1181.8113     1.499     1.442  82.62
       877   1 1.901857e-09 2.482967e-10  21.8021   0.1418  5.52   1091.6237   1293.3807     1.204     0.932  -6.35
       878   1   8.7621e-10 1.755723e-10  22.6435   0.2176  5.13    583.9191   1327.1189     0.970     0.694 -18.03
       879   1 1.256733e-08 5.552082e-10  19.7519   0.0480  6.53    674.4156   1182.8500     2.247     1.782  28.47
       880   1 8.787917e-10 2.041364e-10  22.6403   0.2523  6.56    337.5746   1285.8464     1.103     0.477  41.53
       881   1 4.734742e-09 2.826982e-10  20.8118   0.0648  4.32    697.9910   1273.8766     1.678     1.418 -61.27
       882   1 2.491187e-09 2.734605e-10  21.5090   0.1192  5.97   1569.2656   1282.9866     1.136     1.019 -29.46
       883   1 1.088059e-07 6.685592e-10  17.4084   0.0067  3.83    757.7719   1172.4442     4.177     4.057 -26.15
       884   1 2.134339e-08  2.64979e-10  19.1768   0.0135  3.50    339.0770   1201.9535     1.820     1.744  68.08
       885   1 1.958462e-08 3.867316e-10  19.2702   0.0214  3.71    432.6118   1259.3899     2.556     2.378  -2.36
       886   1 1.084665e-05 1.107843e-09  12.4118   0.0001  3.50    995.1092   1221.4546     7.650     7.282 -39.85
       887   1 4.410439e-10 1.013667e-10  23.3888   0.2496  5.47    731.6640   1106.6942     0.566     0.339 -43.49
       888   1 5.063613e-06 5.827972e-10  13.2388   0.0001  3.50    693.7545   1151.6007     4.058     3.844 -21.16
       889   1 2.269559e-09 2.671247e-10  21.6101   0.1278  5.18    201.5923   1017.5689     1.265     1.186 -50.95
       890   1 2.851475e-09 1.896397e-10  21.3623   0.0722  3.50    216.2292   1262.1489     1.337     1.200  -6.63
       891   1 5.921381e-09 2.584354e-10  20.5689   0.0474  4.16     48.4206   1237.7069     1.516     1.424  26.13
       892   1 1.579868e-09 2.027334e-10  22.0034   0.1394  4.33    208.4954   1173.1981     1.227     0.969  89.79
       893   1   2.1077e-09 3.187638e-10  21.6905   0.1642  7.19   1088.5988   1253.7285     1.303     0.848  71.27
       894   1 2.181417e-09 2.745023e-10  21.6532   0.1367  5.81    232.8916   1172.2628     1.194     1.033 -63.46
       895   1 2.566266e-09 2.041364e-10  21.4767   0.0864  4.90   1598.4243   1176.9310     1.326     1.003 -59.04
       896   1  4.40595e-08  2.90663e-10  18.3899   0.0072  3.50    807.9481   1265.4425     2.019     1.902 -70.18
       897   1 4.602764e-09 2.328739e-10  20.8425   0.0549  4.08    855.3714   1262.2095     1.409     1.286  73.65
       898   1 1.792371e-08 7.325258e-10  19.3664   0.0444  8.09    915.3051   1228.1606     2.445     1.869 -43.37
       899   1 3.639063e-09 3.353452e-10  21.0975   0.1001  5.45    567.5331   1155.9276     1.592     1.318  76.82
       900   1 1.522757e-08 3.583853e-10  19.5434   0.0256  4.10   1442.2175   1200.8615     2.154     1.982  71.24
       901   1 3.550025e-08  2.76574e-10  18.6244   0.0085  3.50    304.9312   1234.3839     1.913     1.856 -33.76
       902   1 1.816118e-09  2.68191e-10  21.8521   0.1604  6.07    351.6841   1156.7565     1.178     0.926 -84.19
       903   1 2.176687e-07 3.310622e-10  16.6555   0.0017  3.50    813.7715   1009.7776     2.257     2.197 -68.78
       904   1 2.172781e-09 2.528529e-10  21.6575   0.1264  4.90    922.5245   1079.0485     1.255     1.189  43.29
       905   1 2.663465e-08  4.32709e-10  18.9364   0.0176  4.07    124.1352   1195.1349     2.706     2.332 -73.07
       906   1 2.368584e-09 2.867083e-10  21.5638   0.1315  5.08    186.4315   1158.2626     1.450     1.223  77.45
       907   1 7.632934e-10 1.755723e-10  22.7933   0.2498  6.82   1454.5129   1210.0012     0.806     0.500 -88.87
       908   1 1.977791e-09 2.964964e-10  21.7595   0.1628  5.77    112.8801   1147.8882     1.372     1.070  -8.90
       909   1  3.98268e-07 3.445805e-10  15.9996   0.0009  3.50    148.0895   1138.5465     2.356     2.269 -37.32
       910   1 1.401748e-09 2.551006e-10  22.1333   0.1976  7.35    898.3801   1208.8767     0.977     0.672  20.63
       911   1  8.72704e-10  1.73939e-10  22.6478   0.2165  5.78    795.0028   1146.7150     0.730     0.669   1.11
       912   1 3.630453e-09 2.816867e-10  21.1001   0.0843  4.32   1415.8191   1210.2772     1.716     1.381  24.13
       913   1 9.203925e-09  4.83193e-10  20.0901   0.0570  7.02   1053.1677   1195.5127     1.807     1.467  41.19
       914   1 2.153008e-08  2.71365e-10  19.1674   0.0137  3.61    838.9218   1207.6139     1.798     1.755 -32.36
       915   1 2.293838e-08 3.187638e-10  19.0986   0.0151  3.96   1553.5176   1237.0118     1.927     1.883 -86.23
       916   1 7.901392e-10 1.548402e-10  22.7557   0.2128  7.89   1107.6663   1253.9991     0.920     0.209 -61.86
       917   1 2.631767e-08 5.603254e-10  18.9494   0.0231  4.18   1429.4891   1213.6143     4.110     2.426  75.81
       918   1 1.270945e-08 2.734605e-10  19.7397   0.0234  3.77    672.7991   1242.4933     1.772     1.623  59.24
       919   1 1.331611e-09 1.941024e-10  22.1891   0.1583  4.60   1333.6744   1196.4862     1.015     0.974  74.61
       920   1 2.871588e-09 3.133453e-10  21.3547   0.1185  6.15    313.7606   1185.3917     1.280     1.129   7.29
       921   1 1.775494e-09 2.424809e-10  21.8767   0.1483  6.72   1308.7001   1179.3103     0.959     0.751  44.17
       922   1 2.184231e-09 3.142549e-10  21.6518   0.1562  6.30   1404.0765   1180.0021     1.260     1.081 -52.35
       923   1 2.797586e-08 4.778472e-10  18.8830   0.0185  4.53   1075.7239   1203.2994     2.733     2.255  30.58
       924   1 7.857227e-10 1.896397e-10  22.7618   0.2621  6.41   1201.1434   1196.6376     0.746     0.637  58.24
       925   1 1.798447e-09 2.724148e-10  21.8628   0.1645  5.70   1338.3046   1145.6455     1.410     0.901 -24.63
       926   1 5.987771e-09 4.110596e-10  20.5568   0.0746  8.81    936.3398   1188.1692     1.298     0.931 -45.88
       927   1 1.203056e-09 2.055298e-10  22.2993   0.1855  8.42    391.6088   1186.7996     0.760     0.445  71.02
       928   1 4.352652e-09 2.776041e-10  20.9031   0.0693  4.61    359.5837   1131.2872     1.494     1.342  -1.55
       929   1   8.5735e-09 2.539792e-10  20.1671   0.0322  3.50    219.6565   1130.1052     1.840     1.620 -13.15
       930   1 1.536855e-09 1.672465e-10  22.0334   0.1182  3.50     19.7945   1176.9624     1.396     0.899  29.76
       931   1 2.036773e-09 3.267231e-10  21.7276   0.1742  6.33    168.8172   1226.8658     1.619     0.916  77.26
       932   1  9.92216e-10  1.78794e-10  22.5085   0.1957  5.27    276.0526   1125.5106     1.021     0.657  62.80
       933   1 3.386125e-09 3.361953e-10  21.1757   0.1078  8.25    665.4713   1117.5046     1.104     0.856  46.83
       934   1 1.188795e-09 2.202766e-10  22.3122   0.2012  5.94    166.6699   1126.0386     1.008     0.755  16.11
       935   1 3.423385e-09 3.535746e-10  21.1639   0.1122  7.00    970.6306   1157.5870     1.322     1.070  13.21
       936   1 1.789553e-08 2.573285e-10  19.3681   0.0156  3.50     99.4685   1151.2517     1.784     1.687   1.45
       937   1 9.794386e-09 3.142549e-10  20.0226   0.0348  4.47    887.8334   1161.7025     1.731     1.626 -68.53
       938   1 3.636567e-09 3.258483e-10  21.0983   0.0973  7.72    653.8674   1160.9288     1.329     0.756  -7.36
       939   1  4.97641e-09 4.247198e-10  20.7577   0.0927  7.36    741.7519   1122.5524     1.600     1.171  25.40
       940   1 9.394675e-10 1.850694e-10  22.5678   0.2139  7.06    253.4927   1175.5239     0.950     0.415 -18.98
       941   1 2.759013e-09 2.150312e-10  21.3981   0.0846  5.56   1599.2494   1166.9886     1.659     0.729 -89.77
       942   1 6.285718e-07  3.49515e-10  15.5041   0.0006  3.50   1299.7883   1165.1495     2.386     2.315 -60.92
       943   1 1.433596e-09  2.31645e-10  22.1089   0.1755  8.49    918.1907   1123.1732     0.733     0.566  47.13
       944   1 1.362002e-08 2.974574e-10  19.6646   0.0237  3.50   1353.1501   1153.5234     2.082     1.939 -52.75
       945   1 8.755353e-10 1.835207e-10  22.6443   0.2276  6.58    576.1321   1153.5261     1.344     0.328 -41.86
       946   1 1.053908e-09 1.866053e-10  22.4430   0.1923  6.47    639.9760   1167.0372     0.915     0.527 -45.69
       947   1 7.631316e-08 3.050372e-10  17.7935   0.0043  3.50    236.4629   1157.8851     2.082     2.025  86.69
       948   1 4.688333e-09  2.71365e-10  20.8225   0.0629  3.75    770.0015   1145.7198     1.958     1.480 -52.94
       949   1 5.442436e-09 2.082887e-10  20.6605   0.0416  3.50   1153.7405   1228.5568     1.510     1.352  81.62
       950   1 9.090593e-09 2.786304e-10  20.1035   0.0333  4.05    547.3897   1129.3235     1.692     1.569  79.65
       951   1 1.042318e-09 1.998978e-10  22.4550   0.2083  6.31    830.1524   1222.8551     0.822     0.674  48.25
       952   1 6.346599e-09 3.310622e-10  20.4936   0.0566  4.60    607.8220   1134.0380     1.728     1.687 -36.57
       953   1 1.276963e-07 3.543809e-10  17.2346   0.0030  3.50   1195.0507   1218.9631     2.464     2.276  60.44
       954   1 1.901702e-07 3.205496e-10  16.8021   0.0018  3.50    513.0596   1214.6195     2.186     2.147 -52.89
       955   1 1.126354e-09 2.353124e-10  22.3708   0.2269  7.34    722.8424   1207.0861     0.984     0.588  73.89
       956   1 2.105112e-07 3.223255e-10  16.6918   0.0017  3.50    183.5700   1129.9978     2.185     2.152 -29.16
       957   1 1.625375e-08 3.976481e-10  19.4726   0.0266  4.11    726.9175   1060.0055     2.365     2.203  27.36
       958   1 3.903061e-09 4.273995e-10  21.0215   0.1189  8.20    873.8657   1129.6652     1.645     0.921 -89.79
       959   1  3.17082e-09 2.500495e-10  21.2471   0.0856  5.55    829.6828   1210.1932     1.521     1.374 -19.71
       960   1 2.103929e-07 7.437395e-10  16.6924   0.0038  3.50   1279.0212   1210.5968     6.378     3.945  80.03
       961   1 1.124411e-09 1.926263e-10  22.3727   0.1860  5.70    504.8562   1129.6541     0.913     0.687 -68.03
       962   1 3.075668e-10 6.321323e-11  23.7802   0.2232  3.50    251.0517   1136.0000     0.834     0.289   0.00
       963   1 5.324692e-10 1.145837e-10  23.1843   0.2337  5.78    397.0000   1208.0117     0.845     0.289  90.00
       964   1 1.117043e-09 2.304095e-10  22.3798   0.2240  7.14    445.0393   1123.6309     1.208     0.482   0.49
       965   1 1.719181e-09 2.136997e-10  21.9117   0.1350  4.05    837.8553   1128.1039     1.337     1.132  -1.32
       966   1 5.075234e-10 1.241483e-10  23.2364   0.2657  6.89    620.3456   1126.6620     0.585     0.329  44.71
       967   1 1.407579e-09 2.353124e-10  22.1288   0.1816  6.45   1144.9487   1129.6584     0.912     0.815  25.90
       968   1 2.078866e-09 2.826982e-10  21.7054   0.1477  7.05    639.6718   1121.0251     1.164     0.770  -0.46
       969   1 2.970954e-09 2.304095e-10  21.3178   0.0842  3.69   1170.2758   1116.1215     1.601     1.346 -42.24
       970   1   2.7431e-08 6.887467e-10  18.9044   0.0273  5.18    479.8165   1111.1180     3.673     2.694  22.98
       971   1 9.152455e-08 3.096803e-10  17.5962   0.0037  3.50    428.0800   1107.4382     2.130     2.072 -85.19
       972   1 3.403953e-08 4.346833e-10  18.6700   0.0139  3.79    329.9074   1120.3387     3.334     2.186  61.86
       973   1 7.724801e-09 2.592519e-10  20.2803   0.0364  5.59    674.5208   1113.9530     1.743     1.703  33.41
       974   1 1.655858e-09 2.584354e-10  21.9524   0.1695  6.18    758.6943   1124.5940     1.052     0.924 -35.54
       975   1 1.627704e-08 5.724202e-10  19.4711   0.0382  5.72    678.7072   1105.4280     2.598     2.159  41.06
       976   1 1.370915e-09  2.37726e-10  22.1575   0.1883  8.10    967.2557   1116.3820     1.018     0.474  -6.87
       977   1 1.404494e-07 3.249712e-10  17.1312   0.0025  3.50    751.8648   1104.5255     2.231     2.139 -39.45
       978   1    7.655e-09 4.017792e-10  20.2901   0.0570  5.58    429.0157   1093.0946     2.683     1.911  48.35
       979   1 1.935349e-09 1.819588e-10  21.7831   0.1021  3.96   1267.0332   1106.6886     1.160     0.969  -0.03
       980   1 1.790094e-09 2.573285e-10  21.8678   0.1561  6.90    970.8538   1108.1918     1.204     0.656 -14.82
       981   1 1.799246e-09 2.847103e-10  21.8623   0.1718  6.53   1123.6902   1108.4100     1.144     0.908  58.15
       982   1 7.462366e-09    2.254e-10  20.3178   0.0328  3.50      6.9930   1073.4689     1.569     1.469  43.50
       983   1 3.090346e-08 4.273995e-10  18.7750   0.0150  3.66   1218.9293   1072.0267     3.069     2.455 -72.09
       984   1 1.621403e-09 2.816867e-10  21.9753   0.1887  6.12    469.0028   1078.4692     1.379     0.853  22.52
       985   1 1.124612e-08 2.279186e-10  19.8725   0.0220  3.50   1526.5717   1095.3766     1.631     1.497  45.70
       986   1 3.038547e-09 2.528529e-10  21.2933   0.0904  3.93    352.5273   1074.4659     1.715     1.301  49.17
       987   1 1.126046e-09 2.266628e-10  22.3711   0.2186  6.78   1352.4967   1101.1418     1.118     0.574 -26.15
       988   1 1.264294e-07 3.187638e-10  17.2454   0.0027  3.50   1148.2299   1081.7708     2.172     2.121  86.14
       989   1 1.065735e-09 2.241302e-10  22.4309   0.2284  5.73   1012.8058   1086.8176     1.189     0.706  67.42
       990   1 8.954306e-10 1.881286e-10  22.6199   0.2282  6.68    493.8967   1033.2124     0.922     0.481 -35.98
       991   1 4.555804e-09 2.340963e-10  20.8536   0.0558  3.50   1452.7456   1086.3395     1.771     1.387  75.36
       992   1  4.08684e-09 2.617276e-10  20.9715   0.0695  4.45    397.0768   1088.1588     1.575     1.249  85.85
       993   1 4.238989e-07 3.511445e-10  15.9318   0.0009  3.50    512.1613   1079.9749     2.383     2.330 -30.66
       994   1 1.313472e-08 5.107603e-10  19.7039   0.0422  5.42    468.4515   1090.9867     3.093     1.627 -59.31
       995   1 6.154073e-09  2.83706e-10  20.5271   0.0501  4.14     42.8836   1083.8307     1.664     1.571 -44.75
       996   1 9.106938e-10 1.308638e-10  22.6016   0.1561  3.50    846.4838   1084.3655     0.966     0.811   9.66
       997   1 6.394927e-09 2.291674e-10  20.4854   0.0389  3.70      7.3642   1063.2153     1.485     1.429  26.27
       998   1 4.126085e-08 2.935942e-10  18.4612   0.0077  3.50    642.5012   1089.3536     2.024     1.943 -74.77
       999   1 7.065444e-09 2.816867e-10  20.3772   0.0433  4.26    330.2392   1079.3186     1.623     1.519   7.64
      1000   1 1.274524e-09 1.896397e-10  22.2366   0.1616  4.62    691.0457   1060.5114     1.071     0.896  12.03
      1001   1 3.796385e-09  2.90663e-10  21.0516   0.0831  4.94    453.3126   1014.6137     1.437     1.346 -86.88
      1002   1 4.301982e-09 2.595374e-10  20.9158   0.0655  4.21    569.0473   1066.7627     1.570     1.361 -46.93
      1003   1 7.959932e-10 1.955674e-10  22.7477   0.2668  7.06   1414.1780   1064.1520     0.768     0.566  45.24
      1004   1 2.829233e-09 2.110116e-10  21.3708   0.0810  3.52    292.1362   1063.9751     1.608     1.214 -24.97
      1005   1  1.76388e-09 2.776041e-10  21.8838   0.1709  5.92   1158.3695   1047.5272     1.172     1.050  12.16
      1006   1 5.449935e-07 3.599746e-10  15.6590   0.0007  3.50    633.0848   1040.3016     2.513     2.319 -50.29
      1007   1 5.074961e-06 4.457061e-10  13.2364   0.0001  3.50     50.2636   1023.6234     3.106     2.902 -44.74
      1008   1 1.012583e-09 2.424809e-10  22.4864   0.2601  6.33   1125.0031   1057.5438     1.590     0.488  73.38
      1009   1  1.35447e-09 2.628159e-10  22.1706   0.2107  7.56    765.4572   1056.0250     1.063     0.659 -28.28
      1010   1 2.305637e-09 2.517216e-10  21.5930   0.1186  5.52    809.9216   1043.2513     1.215     0.957  -0.67
      1011   1 1.984928e-09 2.069139e-10  21.7556   0.1132  4.37    400.6470   1052.8787     1.339     0.952  85.44
      1012   1 2.177592e-09  2.41301e-10  21.6551   0.1203  5.07   1096.0392   1042.6166     1.308     0.954  33.41
      1013   1 5.826536e-09 3.267231e-10  20.5865   0.0609  3.50   1474.1783   1067.8463     2.885     1.705  24.85
      1014   1 1.663496e-09 2.595374e-10  21.9474   0.1694  6.40    102.2179   1034.1051     1.094     0.828  80.09
      1015   1 9.425946e-10 1.771905e-10  22.5642   0.2041  5.65   1384.9015   1053.8519     0.850     0.653 -46.33
      1016   1 1.089999e-09 1.529857e-10  22.4064   0.1524  3.50    208.6512   1048.1788     1.081     0.953  28.14
      1017   1 2.541898e-08 3.918638e-10  18.9871   0.0167  3.50    302.7492   1030.4073     3.152     2.227  66.23
      1018   1 9.025866e-09 3.535746e-10  20.1113   0.0425  3.90    122.1881   1037.9811     2.743     1.646 -38.20
      1019   1 2.196701e-09 3.003223e-10  21.6456   0.1485  6.63    242.2797   1037.1067     1.274     0.888  73.58
      1020   1 3.267982e-08 2.745023e-10  18.7143   0.0091  3.50    344.7764   1011.3165     1.923     1.819 -68.46
      1021   1 1.879409e-08 3.533409e-10  19.3149   0.0204  4.40    454.1021    986.6834     2.588     2.221  59.91
      1022   1 1.676773e-08 3.933178e-10  19.4388   0.0255  3.50   1563.1798   1065.1749     3.320     2.131 -68.93
      1023   1  1.36018e-09  2.37726e-10  22.1660   0.1898  5.87    948.4816   1028.9623     1.358     0.660 -32.47
      1024   1 3.863668e-09 2.724148e-10  21.0325   0.0766  4.16    467.3510   1040.9155     1.719     1.418  62.78
      1025   1 5.158479e-09 2.027334e-10  20.7187   0.0427  3.50   1597.2731   1065.8975     1.480     1.405  72.64
      1026   1 6.757513e-10 1.548402e-10  22.9255   0.2488  8.37    552.6462   1061.6799     0.580     0.331 -43.61
      1027   1 2.125435e-09 2.389236e-10  21.6814   0.1221  4.81     53.2145   1079.8129     1.206     1.154 -19.89
      1028   1 4.167986e-09 3.022171e-10  20.9502   0.0787  4.62    267.8597   1010.9699     1.662     1.460 -18.51
      1029   1 4.860486e-10 1.241483e-10  23.2833   0.2774  6.28   1421.6715   1010.9986     0.912     0.211  61.77
      1030   1 1.716248e-09 2.528529e-10  21.9135   0.1600  6.17    352.1931   1027.8289     1.164     0.791 -21.08
      1031   1 1.408762e-09 1.881286e-10  22.1279   0.1450  7.89      1.6210   1009.4669     1.128     0.454  55.15
      1032   1 7.358769e-10 1.548402e-10  22.8330   0.2285  5.74    190.9472   1009.5069     0.788     0.500   0.27
      1033   1 8.621658e-10 1.896397e-10  22.6610   0.2389  6.88      6.8422   1026.8171     0.760     0.568  43.97
      1034   1  3.69374e-08 3.115182e-10  18.5813   0.0092  3.63    542.7229   1001.5912     2.063     1.995  81.48
      1035   1 1.612237e-09 1.689445e-10  21.9814   0.1138  3.50   1238.1129   1004.3881     1.279     1.047  47.95
      1036   1 6.782915e-10 1.094885e-10  22.9215   0.1753  3.60   1252.0231   1030.2611     0.728     0.692   0.18
      1037   1 1.944856e-09 1.803833e-10  21.7778   0.1007  3.74   1154.8625   1019.4000     1.169     1.103 -49.12
      1038   1 1.505597e-08 2.539792e-10  19.5557   0.0183  3.50   1555.4467   1001.4152     1.705     1.668  56.12
      1039   1 1.133703e-08 2.448238e-10  19.8638   0.0235  3.50   1273.8450    999.8937     1.789     1.563 -51.80
      1040   1 6.172136e-09 2.454334e-10  20.5239   0.0432  4.41    452.8140    978.3890     1.772     1.539  36.29
      1041   1 3.234017e-09 2.163545e-10  21.2256   0.0727  4.03    233.4559    998.3409     1.335     1.211  21.51
      1042   1 6.471248e-10  1.33027e-10  22.9725   0.2232  4.71   1441.2799    999.4592     0.985     0.485  -7.61
      1043   1 4.716973e-10 1.308638e-10  23.3158   0.3013  7.42   1159.6748    997.6682     0.573     0.336 -45.30
      1044   1 3.776076e-07  3.49515e-10  16.0574   0.0010  3.50    558.4624    984.8608     2.410     2.308  61.88
      1045   1 2.409706e-09 2.494435e-10  21.5451   0.1124  5.14    499.5499    993.2703     1.177     1.099  51.87
      1046   1 1.097149e-09 1.881286e-10  22.3993   0.1862  4.42    345.6362    992.5887     1.088     0.937 -43.76
