#   1 KRON_RADIUS            Kron apertures in units of A or B                         
#   2 MAGERR_APER            RMS error vector for fixed aperture mag.                   [mag]
#   3 Y_IMAGE                Object position along y                                    [pixel]
#   4 X_IMAGE                Object position along x                                    [pixel]
#   5 THETA_IMAGE            Position angle (CCW/x)                                     [deg]
#   6 FLUX_APER              Flux vector within fixed circular aperture(s)              [count]
#   7 A_IMAGE                Profile RMS along major axis                               [pixel]
#   8 THRESHOLD              Detection threshold above background                       [count]
#   9 B_IMAGE                Profile RMS along minor axis                               [pixel]
#  10 FLUX_RADIUS            Fraction-of-light radii                                    [pixel]
#  11 FLUXERR_APER           RMS error vector for aperture flux(es)                     [count]
#  12 MAG_APER               Fixed aperture magnitude vector                            [mag]
#  13 NUMBER                 Running object number                                     
 3.50   0.0845     60.9882    121.1522  -9.37    0.5652652     1.529   0.01485173     1.197      2.297   0.04396826   0.6194          1
 3.51   0.0087    360.9115    360.9900  23.18     5.475941     1.919   0.01485173     1.855      2.229   0.04392364  -1.8461          2
 3.56   0.0097    361.0115    301.0188  -9.16     4.940089     1.944   0.01485173     1.893      2.265   0.04392364  -1.7343          3
 3.50   0.0110    360.9739    240.9588  30.92     4.344549     1.987   0.01485173     1.922      2.298   0.04396826  -1.5949          4
 3.50   0.0127    360.9304    181.0572 -71.27     3.757008     1.901   0.01485173     1.833      2.284   0.04387898  -1.4371          5
 3.50   0.0146    360.9843    121.0240  42.41      3.26331     1.855   0.01485173     1.813      2.250   0.04387898  -1.2841          6
 3.61   0.0171    360.9005     61.0693 -69.17     2.771102     1.826   0.01485173     1.789      2.254   0.04374472  -1.1066          7
 3.76   0.0108    300.9487    301.0177  55.86     4.418859     1.904   0.01485173     1.799      2.242   0.04401283  -1.6133          8
 3.56   0.0124    301.0505    241.0143 -24.01     3.840676     1.865   0.01485173     1.824      2.234   0.04396826  -1.4610          9
 3.50   0.0096    300.9445    361.0531 -11.57     4.978782     1.866   0.01485173     1.839      2.211   0.04401283  -1.7428         10
 3.55   0.0143    300.9900    181.0101 -43.01      3.32265     1.845   0.01485173     1.777      2.190   0.04387898  -1.3037         11
 3.85   0.0175    301.0492    121.0658  80.01       2.7232     1.814   0.01485173     1.783      2.231   0.04392364  -1.0877         12
 3.57   0.0217    300.8544     61.0564 -49.34     2.203344     1.771   0.01485173     1.685      2.250   0.04401283  -0.8577         13
 3.67   0.0109    241.0238    361.0815  60.88     4.375284     1.901   0.01485173     1.846      2.254   0.04387898  -1.6025         14
 3.50   0.0125    241.0479    300.9753  76.97      3.81017     1.865   0.01485173     1.811      2.214   0.04396826  -1.4524         15
 3.85   0.0147    240.9112    240.9981 -61.97     3.248871     1.890   0.01485173     1.786      2.264   0.04396826  -1.2793         16
 3.56   0.0172    240.9594    180.9756 -55.51     2.775179     1.794   0.01485173     1.691      2.196   0.04396826  -1.1082         17
 3.50   0.0222    240.9990    120.9636  63.17     2.151361     1.745   0.01485173     1.721      2.213   0.04396826  -0.8318         18
 4.15   0.0290    240.8722     61.0870 -58.49      1.63902     1.739   0.01485173     1.561      2.219   0.04374472  -0.5365         19
 3.50   0.0125    181.0008    361.0603  30.30     3.819224     1.897   0.01485173     1.869      2.280   0.04396826  -1.4549         20
 4.10   0.0143    181.0713    300.9302   4.89     3.312288     1.798   0.01485173     1.772      2.232   0.04374472  -1.3003         21
 3.71   0.0179    181.0042    240.9162  42.92     2.663473     1.862   0.01485173     1.729      2.252   0.04396826  -1.0636         22
 4.09   0.0219    181.0369    181.1102  79.37     2.171109     1.742   0.01485173     1.691      2.173   0.04378952  -0.8417         23
 3.62   0.0292    181.1118    120.9149 -30.71     1.627074     1.746   0.01485173     1.532      2.103   0.04374472  -0.5285         24
 4.73   0.0455    180.8682     60.8035  56.37      1.04852     1.586   0.01485173     1.422      2.394   0.04396826  -0.0514         25
 3.50   0.0143    120.9236    361.0334 -44.71     3.326207     1.841   0.01485173     1.815      2.233   0.04387898  -1.3049         26
 3.50   0.0169    121.0163    300.9895  30.06     2.821274     1.811   0.01485173     1.754      2.186   0.04392364  -1.1261         27
 3.50   0.0218    121.0447    241.0041  27.46     2.186865     1.754   0.01485173     1.682      2.223   0.04396826  -0.8496         28
 3.57   0.0284    120.9614    180.8627 -84.90     1.681547     1.710   0.01485173     1.606      2.149   0.04392364  -0.5643         29
 3.72   0.0413    120.9881    121.0326  35.88     1.155002     1.611   0.01485173     1.487      2.133   0.04387898  -0.1565         30
 5.89   0.0888    121.3004     60.6752 -47.02    0.5349406     1.278   0.01485173     1.148      2.426   0.04374472   0.6792         31
 4.13   0.0173     61.1026    361.0255  70.52     2.744693     1.918   0.01485173     1.774      2.349   0.04378952  -1.0962         32
 3.77   0.0215     61.0532    300.9680  85.03     2.222579     1.854   0.01485173     1.771      2.366   0.04396826  -0.8671         33
 3.87   0.0297     61.0664    241.0080  17.15     1.607962     1.785   0.01485173     1.557      2.339   0.04396826  -0.5157         34
 3.81   0.0449     61.1304    181.1510  43.77     1.061108     1.569   0.01485173     1.486      2.178   0.04387898  -0.0644         35
